# Top-of-atmosphere (TOA) lunar irradiance from Miller and Turner (2009) by 10 nm increments
# First column wavelength (nm), second column TOA irradiance# Phase angle = 115
# Units = mW/m^2-micrometer

300 0.1199
310 0.1195
320 0.1812
330 0.2947
340 0.2654
350 0.2451
360 0.3235
370 0.3901
380 0.3401
390 0.4022
400 0.5797
410 0.6054
420 0.6302
430 0.5564
440 0.6792
450 0.8081
460 0.8308
470 0.8393
480 0.8964
490 0.8733
500 0.8646
510 0.8761
520 0.8384
530 0.8979
540 0.8913
550 0.9336
560 0.8865
570 0.9194
580 0.9377
590 0.8805
600 0.9515
610 0.9411
620 0.9439
630 0.9509
640 0.9411
650 0.9149
660 0.9226
670 0.9289
680 0.914
690 0.9207
700 0.9184
710 0.892
720 0.8724
730 0.8523
740 0.8386
750 0.8415
