# Top-of-atmosphere (TOA) lunar irradiance from Miller and Turner (2009)
# First column wavelength (nm), second column TOA irradiance# Lunar phase angle: 166
# Irradiance units: mW/m^2-micrometer

300 0.4373
301 0.3251
302 0.4093
303 0.391
304 0.5529
305 0.5148
306 0.5255
307 0.486
308 0.565
309 0.5698
310 0.435
311 0.5778
312 0.6853
313 0.5951
314 0.6455
315 0.593
316 0.6104
317 0.5579
318 0.7767
319 0.5972
320 0.6581
321 0.8128
322 0.6447
323 0.6755
324 0.6298
325 0.7547
326 0.8451
327 0.9633
328 0.9351
329 0.8692
330 1.068
331 0.986
332 0.9762
333 0.9471
334 0.9072
335 0.9702
336 0.9888
337 0.7826
338 0.8591
339 0.922
340 0.9601
341 1.06
342 0.9295
343 1.034
344 1.039
345 0.7496
346 1.023
347 0.9492
348 0.9415
349 0.9816
350 0.8847
351 1.169
352 1.043
353 0.9341
354 1.127
355 1.199
356 1.124
357 1.005
358 0.9126
359 0.6813
360 1.166
361 1.099
362 0.974
363 1.114
364 1.051
365 1.134
366 1.302
367 1.386
368 1.336
369 1.192
370 1.403
371 1.243
372 1.438
373 1.188
374 1.026
375 1.046
376 1.257
377 1.234
378 1.487
379 1.596
380 1.22
381 1.429
382 1.299
383 0.9314
384 0.7761
385 1.125
386 1.184
387 1.199
388 1.171
389 1.126
390 1.44
391 1.473
392 1.715
393 1.297
394 0.5649
395 1.308
396 1.692
397 0.8991
398 1.011
399 1.926
400 2.072
401 2.081
402 2.264
403 2.299
404 2.251
405 2.2
406 2.138
407 2.083
408 2.112
409 2.141
410 2.159
411 2
412 2.081
413 2.163
414 2.245
415 2.254
416 2.259
417 2.288
418 2.242
419 2.241
420 2.243
421 2.298
422 2.342
423 2.262
424 2.234
425 2.289
426 2.272
427 2.263
428 2.179
429 2.178
430 1.976
431 1.65
432 2.044
433 2.259
434 2.23
435 2.184
436 2.348
437 2.48
438 2.403
439 2.311
440 2.408
441 2.513
442 2.609
443 2.689
444 2.697
445 2.7
446 2.655
447 2.639
448 2.794
449 2.829
450 2.859
451 2.988
452 3.002
453 2.862
454 2.79
455 2.919
456 2.94
457 3.021
458 3.023
459 2.95
460 2.933
461 2.98
462 3.028
463 3.058
464 3.025
465 2.959
466 2.961
467 2.938
468 2.924
469 2.977
470 2.957
471 2.915
472 2.989
473 3.082
474 3.043
475 3.111
476 3.111
477 3.07
478 3.152
479 3.152
480 3.152
481 3.138
482 3.163
483 3.135
484 3.096
485 3.061
486 2.786
487 2.633
488 2.852
489 2.942
490 3.064
491 3.11
492 3.002
493 2.997
494 3.035
495 3.109
496 3.112
497 3.102
498 3.08
499 3.031
500 3.027
501 2.981
502 2.923
503 2.987
504 3.045
505 3.035
506 3.148
507 3.199
508 3.154
509 3.109
510 3.061
511 3.03
512 3.091
513 3.06
514 2.988
515 2.952
516 2.998
517 2.793
518 2.629
519 2.73
520 2.924
521 2.98
522 3.037
523 2.977
524 3.032
525 3.126
526 3.094
527 2.834
528 2.903
529 3.092
530 3.125
531 3.171
532 3.18
533 3.146
534 3.104
535 3.116
536 3.21
537 3.14
538 3.142
539 3.165
540 3.095
541 3.036
542 3.104
543 3.142
544 3.171
545 3.201
546 3.211
547 3.214
548 3.178
549 3.196
550 3.236
551 3.222
552 3.235
553 3.232
554 3.225
555 3.26
556 3.246
557 3.181
558 3.145
559 3.106
560 3.066
561 3.143
562 3.174
563 3.139
564 3.157
565 3.167
566 3.142
567 3.145
568 3.203
569 3.18
570 3.173
571 3.144
572 3.151
573 3.276
574 3.294
575 3.268
576 3.222
577 3.237
578 3.246
579 3.204
580 3.23
581 3.261
582 3.279
583 3.314
584 3.319
585 3.297
586 3.24
587 3.236
588 3.283
589 3.159
590 3.027
591 3.175
592 3.252
593 3.262
594 3.259
595 3.272
596 3.259
597 3.284
598 3.282
599 3.255
600 3.264
601 3.246
602 3.21
603 3.227
604 3.288
605 3.303
606 3.287
607 3.277
608 3.266
609 3.237
610 3.222
611 3.226
612 3.233
613 3.221
614 3.183
615 3.183
616 3.16
617 3.103
618 3.154
619 3.203
620 3.225
621 3.257
622 3.236
623 3.219
624 3.203
625 3.176
626 3.167
627 3.232
628 3.274
629 3.277
630 3.242
631 3.229
632 3.185
633 3.227
634 3.211
635 3.224
636 3.225
637 3.219
638 3.265
639 3.266
640 3.202
641 3.179
642 3.168
643 3.204
644 3.195
645 3.202
646 3.176
647 3.182
648 3.207
649 3.2
650 3.107
651 3.219
652 3.237
653 3.192
654 3.168
655 3.12
656 2.916
657 2.681
658 2.969
659 3.114
660 3.127
661 3.155
662 3.175
663 3.166
664 3.13
665 3.14
666 3.149
667 3.133
668 3.126
669 3.148
670 3.141
671 3.131
672 3.118
673 3.11
674 3.105
675 3.101
676 3.097
677 3.093
678 3.09
679 3.087
680 3.085
681 3.083
682 3.081
683 3.08
684 3.079
685 3.078
686 3.078
687 3.078
688 3.078
689 3.084
690 3.101
691 3.107
692 3.092
693 3.083
694 3.089
695 3.072
696 3.071
697 3.081
698 3.04
699 3.078
700 3.087
701 3.046
702 3.027
703 3.041
704 3.056
705 3.089
706 3.07
707 3.033
708 3.038
709 3.011
710 2.992
711 3.005
712 2.964
713 2.954
714 2.961
715 2.956
716 2.946
717 2.959
718 2.956
719 2.919
720 2.921
721 2.927
722 2.929
723 2.926
724 2.939
725 2.932
726 2.908
727 2.917
728 2.912
729 2.859
730 2.847
731 2.901
732 2.895
733 2.893
734 2.894
735 2.896
736 2.866
737 2.858
738 2.855
739 2.791
740 2.796
741 2.781
742 2.761
743 2.803
744 2.845
745 2.817
746 2.847
747 2.837
748 2.847
749 2.831
750 2.8
