# Top-of-atmosphere (TOA) lunar irradiance from Miller and Turner (2009)
# First column wavelength (nm), second column TOA irradiance# Lunar phase angle: 178
# Irradiance units: mW/m^2-micrometer

300 0.6027
301 0.448
302 0.564
303 0.5387
304 0.7618
305 0.7093
306 0.7239
307 0.6694
308 0.7783
309 0.7848
310 0.5991
311 0.7957
312 0.9437
313 0.8194
314 0.8887
315 0.8164
316 0.8403
317 0.7679
318 1.069
319 0.8219
320 0.9056
321 1.118
322 0.887
323 0.9294
324 0.8665
325 1.038
326 1.162
327 1.325
328 1.286
329 1.195
330 1.469
331 1.356
332 1.342
333 1.302
334 1.247
335 1.334
336 1.359
337 1.076
338 1.181
339 1.267
340 1.319
341 1.457
342 1.277
343 1.42
344 1.428
345 1.03
346 1.405
347 1.304
348 1.293
349 1.348
350 1.215
351 1.605
352 1.432
353 1.282
354 1.547
355 1.646
356 1.543
357 1.379
358 1.252
359 0.9348
360 1.599
361 1.508
362 1.336
363 1.527
364 1.442
365 1.556
366 1.786
367 1.9
368 1.832
369 1.635
370 1.923
371 1.705
372 1.971
373 1.628
374 1.406
375 1.434
376 1.723
377 1.691
378 2.037
379 2.187
380 1.672
381 1.957
382 1.779
383 1.276
384 1.063
385 1.541
386 1.622
387 1.642
388 1.604
389 1.542
390 1.971
391 2.017
392 2.348
393 1.775
394 0.7731
395 1.79
396 2.315
397 1.23
398 1.383
399 2.635
400 2.834
401 2.846
402 3.096
403 3.144
404 3.079
405 3.008
406 2.924
407 2.847
408 2.887
409 2.926
410 2.951
411 2.734
412 2.845
413 2.956
414 3.068
415 3.08
416 3.087
417 3.126
418 3.063
419 3.061
420 3.063
421 3.138
422 3.198
423 3.088
424 3.05
425 3.125
426 3.102
427 3.089
428 2.974
429 2.972
430 2.697
431 2.252
432 2.79
433 3.083
434 3.043
435 2.979
436 3.202
437 3.382
438 3.278
439 3.151
440 3.283
441 3.427
442 3.557
443 3.666
444 3.677
445 3.681
446 3.619
447 3.597
448 3.808
449 3.856
450 3.895
451 4.071
452 4.091
453 3.9
454 3.801
455 3.976
456 4.004
457 4.115
458 4.117
459 4.017
460 3.993
461 4.057
462 4.122
463 4.163
464 4.118
465 4.028
466 4.03
467 3.999
468 3.979
469 4.052
470 4.023
471 3.966
472 4.066
473 4.193
474 4.14
475 4.232
476 4.231
477 4.175
478 4.286
479 4.286
480 4.285
481 4.266
482 4.3
483 4.262
484 4.209
485 4.16
486 3.787
487 3.578
488 3.875
489 3.998
490 4.163
491 4.225
492 4.078
493 4.071
494 4.122
495 4.223
496 4.226
497 4.213
498 4.182
499 4.115
500 4.11
501 4.046
502 3.968
503 4.054
504 4.133
505 4.118
506 4.272
507 4.341
508 4.279
509 4.218
510 4.153
511 4.11
512 4.193
513 4.15
514 4.052
515 4.003
516 4.066
517 3.788
518 3.564
519 3.701
520 3.963
521 4.039
522 4.116
523 4.035
524 4.109
525 4.236
526 4.192
527 3.84
528 3.933
529 4.189
530 4.232
531 4.296
532 4.307
533 4.261
534 4.204
535 4.219
536 4.347
537 4.251
538 4.253
539 4.284
540 4.19
541 4.109
542 4.201
543 4.252
544 4.291
545 4.331
546 4.344
547 4.347
548 4.299
549 4.322
550 4.376
551 4.357
552 4.375
553 4.37
554 4.36
555 4.407
556 4.388
557 4.3
558 4.25
559 4.198
560 4.144
561 4.247
562 4.289
563 4.242
564 4.265
565 4.279
566 4.244
567 4.249
568 4.326
569 4.295
570 4.286
571 4.245
572 4.255
573 4.423
574 4.447
575 4.411
576 4.349
577 4.369
578 4.38
579 4.323
580 4.359
581 4.401
582 4.424
583 4.471
584 4.478
585 4.448
586 4.371
587 4.365
588 4.427
589 4.26
590 4.081
591 4.281
592 4.385
593 4.397
594 4.393
595 4.41
596 4.393
597 4.426
598 4.423
599 4.386
600 4.398
601 4.374
602 4.325
603 4.347
604 4.429
605 4.449
606 4.427
607 4.413
608 4.398
609 4.359
610 4.338
611 4.343
612 4.353
613 4.335
614 4.284
615 4.283
616 4.252
617 4.175
618 4.243
619 4.309
620 4.339
621 4.381
622 4.354
623 4.329
624 4.308
625 4.272
626 4.259
627 4.346
628 4.402
629 4.406
630 4.359
631 4.341
632 4.281
633 4.337
634 4.316
635 4.333
636 4.334
637 4.325
638 4.387
639 4.387
640 4.302
641 4.271
642 4.256
643 4.303
644 4.291
645 4.3
646 4.265
647 4.273
648 4.305
649 4.296
650 4.171
651 4.321
652 4.345
653 4.284
654 4.252
655 4.187
656 3.913
657 3.597
658 3.983
659 4.178
660 4.194
661 4.232
662 4.258
663 4.246
664 4.197
665 4.21
666 4.222
667 4.2
668 4.191
669 4.22
670 4.21
671 4.196
672 4.178
673 4.167
674 4.161
675 4.155
676 4.149
677 4.144
678 4.139
679 4.135
680 4.132
681 4.129
682 4.126
683 4.124
684 4.122
685 4.121
686 4.12
687 4.12
688 4.12
689 4.127
690 4.15
691 4.158
692 4.138
693 4.124
694 4.132
695 4.11
696 4.108
697 4.121
698 4.066
699 4.116
700 4.128
701 4.073
702 4.048
703 4.066
704 4.086
705 4.129
706 4.103
707 4.054
708 4.06
709 4.024
710 3.998
711 4.015
712 3.961
713 3.946
714 3.956
715 3.948
716 3.934
717 3.952
718 3.948
719 3.898
720 3.9
721 3.908
722 3.91
723 3.906
724 3.923
725 3.914
726 3.882
727 3.893
728 3.886
729 3.815
730 3.799
731 3.87
732 3.862
733 3.859
734 3.86
735 3.862
736 3.822
737 3.811
738 3.807
739 3.722
740 3.728
741 3.708
742 3.681
743 3.737
744 3.792
745 3.754
746 3.794
747 3.78
748 3.794
749 3.773
750 3.73
