# Top-of-atmosphere (TOA) lunar irradiance from Miller and Turner (2009) by 10 nm increments
# First column wavelength (nm), second column TOA irradiance# Phase angle = 86
# Units = mW/m^2-micrometer

300 0.04903
310 0.0489
320 0.07416
330 0.1207
340 0.1088
350 0.1005
360 0.1327
370 0.1601
380 0.1397
390 0.1652
400 0.2383
410 0.249
420 0.2594
430 0.2291
440 0.2799
450 0.3331
460 0.3426
470 0.3464
480 0.3701
490 0.3608
500 0.3574
510 0.3623
520 0.3469
530 0.3717
540 0.3692
550 0.3869
560 0.3676
570 0.3814
580 0.3892
590 0.3657
600 0.3954
610 0.3913
620 0.3927
630 0.3958
640 0.3919
650 0.3812
660 0.3846
670 0.3874
680 0.3814
690 0.3844
700 0.3837
710 0.3728
720 0.3649
730 0.3566
740 0.3511
750 0.3525
