# Top-of-atmosphere (TOA) lunar irradiance from Miller and Turner (2009)
# First column wavelength (nm), second column TOA irradiance# Lunar phase angle: 144
# Irradiance units: mW/m^2-micrometer

300 0.2447
301 0.1819
302 0.2291
303 0.2189
304 0.3095
305 0.2883
306 0.2943
307 0.2722
308 0.3165
309 0.3192
310 0.2437
311 0.3238
312 0.3841
313 0.3336
314 0.3619
315 0.3325
316 0.3423
317 0.3129
318 0.4356
319 0.335
320 0.3692
321 0.4561
322 0.3618
323 0.3792
324 0.3536
325 0.4237
326 0.4746
327 0.541
328 0.5252
329 0.4883
330 0.6001
331 0.554
332 0.5486
333 0.5323
334 0.51
335 0.5455
336 0.556
337 0.4401
338 0.4832
339 0.5187
340 0.5401
341 0.5965
342 0.5231
343 0.582
344 0.585
345 0.422
346 0.5759
347 0.5345
348 0.5303
349 0.5529
350 0.4984
351 0.6586
352 0.5878
353 0.5265
354 0.6353
355 0.676
356 0.6339
357 0.5667
358 0.5147
359 0.3843
360 0.6575
361 0.6201
362 0.5496
363 0.6284
364 0.5934
365 0.6404
366 0.7351
367 0.7825
368 0.7547
369 0.6733
370 0.7924
371 0.7025
372 0.8126
373 0.6714
374 0.5797
375 0.5914
376 0.7109
377 0.6977
378 0.8409
379 0.9028
380 0.6903
381 0.8083
382 0.7348
383 0.5271
384 0.4393
385 0.6371
386 0.6704
387 0.6789
388 0.6633
389 0.6379
390 0.8157
391 0.8347
392 0.9719
393 0.735
394 0.3202
395 0.7412
396 0.9589
397 0.5098
398 0.5731
399 1.092
400 1.175
401 1.18
402 1.284
403 1.305
404 1.278
405 1.249
406 1.214
407 1.182
408 1.199
409 1.216
410 1.226
411 1.136
412 1.182
413 1.229
414 1.276
415 1.281
416 1.284
417 1.301
418 1.275
419 1.274
420 1.276
421 1.307
422 1.332
423 1.287
424 1.271
425 1.302
426 1.293
427 1.288
428 1.24
429 1.24
430 1.125
431 0.9398
432 1.165
433 1.287
434 1.271
435 1.245
436 1.338
437 1.413
438 1.37
439 1.318
440 1.373
441 1.433
442 1.488
443 1.534
444 1.539
445 1.541
446 1.515
447 1.506
448 1.595
449 1.615
450 1.632
451 1.706
452 1.715
453 1.635
454 1.594
455 1.668
456 1.68
457 1.727
458 1.728
459 1.687
460 1.677
461 1.704
462 1.732
463 1.749
464 1.731
465 1.693
466 1.694
467 1.682
468 1.674
469 1.705
470 1.693
471 1.669
472 1.712
473 1.765
474 1.744
475 1.783
476 1.783
477 1.76
478 1.807
479 1.807
480 1.807
481 1.799
482 1.814
483 1.798
484 1.776
485 1.756
486 1.599
487 1.511
488 1.637
489 1.689
490 1.759
491 1.786
492 1.724
493 1.721
494 1.743
495 1.786
496 1.788
497 1.783
498 1.77
499 1.742
500 1.741
501 1.714
502 1.681
503 1.718
504 1.752
505 1.746
506 1.812
507 1.841
508 1.815
509 1.79
510 1.762
511 1.744
512 1.78
513 1.762
514 1.721
515 1.701
516 1.728
517 1.61
518 1.515
519 1.573
520 1.685
521 1.718
522 1.751
523 1.717
524 1.749
525 1.803
526 1.785
527 1.635
528 1.676
529 1.785
530 1.804
531 1.831
532 1.836
533 1.817
534 1.793
535 1.8
536 1.855
537 1.814
538 1.816
539 1.829
540 1.789
541 1.755
542 1.795
543 1.817
544 1.834
545 1.852
546 1.857
547 1.859
548 1.839
549 1.849
550 1.873
551 1.865
552 1.873
553 1.872
554 1.868
555 1.888
556 1.88
557 1.843
558 1.822
559 1.8
560 1.777
561 1.822
562 1.84
563 1.82
564 1.831
565 1.837
566 1.822
567 1.825
568 1.859
569 1.845
570 1.842
571 1.825
572 1.829
573 1.902
574 1.913
575 1.898
576 1.871
577 1.881
578 1.886
579 1.862
580 1.877
581 1.896
582 1.906
583 1.927
584 1.93
585 1.918
586 1.885
587 1.883
588 1.91
589 1.838
590 1.762
591 1.848
592 1.893
593 1.899
594 1.898
595 1.905
596 1.898
597 1.913
598 1.912
599 1.896
600 1.902
601 1.892
602 1.871
603 1.881
604 1.917
605 1.926
606 1.917
607 1.911
608 1.905
609 1.889
610 1.88
611 1.883
612 1.887
613 1.88
614 1.858
615 1.858
616 1.845
617 1.812
618 1.842
619 1.871
620 1.885
621 1.903
622 1.892
623 1.882
624 1.873
625 1.857
626 1.852
627 1.89
628 1.915
629 1.918
630 1.897
631 1.89
632 1.864
633 1.889
634 1.88
635 1.888
636 1.889
637 1.885
638 1.913
639 1.913
640 1.876
641 1.863
642 1.857
643 1.878
644 1.873
645 1.877
646 1.863
647 1.866
648 1.881
649 1.877
650 1.823
651 1.889
652 1.9
653 1.874
654 1.86
655 1.832
656 1.712
657 1.575
658 1.744
659 1.83
660 1.837
661 1.854
662 1.866
663 1.861
664 1.84
665 1.846
666 1.852
667 1.843
668 1.839
669 1.852
670 1.848
671 1.842
672 1.835
673 1.83
674 1.828
675 1.826
676 1.823
677 1.822
678 1.82
679 1.819
680 1.817
681 1.816
682 1.816
683 1.815
684 1.815
685 1.814
686 1.815
687 1.815
688 1.815
689 1.819
690 1.829
691 1.833
692 1.825
693 1.819
694 1.823
695 1.814
696 1.813
697 1.819
698 1.795
699 1.818
700 1.824
701 1.8
702 1.789
703 1.797
704 1.806
705 1.826
706 1.815
707 1.794
708 1.796
709 1.781
710 1.77
711 1.778
712 1.754
713 1.748
714 1.752
715 1.75
716 1.744
717 1.752
718 1.751
719 1.729
720 1.73
721 1.734
722 1.735
723 1.734
724 1.742
725 1.738
726 1.724
727 1.729
728 1.727
729 1.695
730 1.689
731 1.721
732 1.717
733 1.717
734 1.718
735 1.719
736 1.701
737 1.697
738 1.695
739 1.658
740 1.661
741 1.652
742 1.64
743 1.666
744 1.691
745 1.674
746 1.692
747 1.686
748 1.693
749 1.684
750 1.665
