# Top-of-atmosphere (TOA) lunar irradiance from Miller and Turner (2009)
# First column wavelength (nm), second column TOA irradiance# Lunar phase angle: 177
# Irradiance units: mW/m^2-micrometer

300 0.5874
301 0.4367
302 0.5497
303 0.5251
304 0.7425
305 0.6913
306 0.7056
307 0.6525
308 0.7586
309 0.7649
310 0.5839
311 0.7755
312 0.9198
313 0.7987
314 0.8662
315 0.7957
316 0.8191
317 0.7485
318 1.042
319 0.8012
320 0.8827
321 1.09
322 0.8646
323 0.9059
324 0.8446
325 1.012
326 1.133
327 1.292
328 1.254
329 1.165
330 1.432
331 1.322
332 1.308
333 1.269
334 1.216
335 1.3
336 1.325
337 1.049
338 1.151
339 1.235
340 1.286
341 1.42
342 1.245
343 1.385
344 1.392
345 1.004
346 1.37
347 1.271
348 1.26
349 1.314
350 1.184
351 1.565
352 1.396
353 1.25
354 1.508
355 1.605
356 1.504
357 1.344
358 1.221
359 0.9114
360 1.559
361 1.47
362 1.303
363 1.489
364 1.406
365 1.517
366 1.741
367 1.853
368 1.787
369 1.594
370 1.875
371 1.662
372 1.922
373 1.588
374 1.371
375 1.398
376 1.68
377 1.649
378 1.987
379 2.132
380 1.63
381 1.908
382 1.734
383 1.244
384 1.036
385 1.503
386 1.581
387 1.601
388 1.564
389 1.504
390 1.922
391 1.967
392 2.289
393 1.731
394 0.7538
395 1.745
396 2.257
397 1.2
398 1.348
399 2.569
400 2.763
401 2.776
402 3.019
403 3.066
404 3.002
405 2.934
406 2.851
407 2.776
408 2.815
409 2.854
410 2.878
411 2.666
412 2.774
413 2.883
414 2.992
415 3.003
416 3.01
417 3.048
418 2.987
419 2.985
420 2.988
421 3.06
422 3.119
423 3.012
424 2.975
425 3.047
426 3.025
427 3.012
428 2.9
429 2.899
430 2.63
431 2.196
432 2.721
433 3.007
434 2.968
435 2.906
436 3.123
437 3.299
438 3.197
439 3.074
440 3.202
441 3.342
442 3.469
443 3.576
444 3.587
445 3.59
446 3.53
447 3.508
448 3.714
449 3.761
450 3.799
451 3.971
452 3.99
453 3.804
454 3.707
455 3.879
456 3.906
457 4.013
458 4.016
459 3.918
460 3.895
461 3.957
462 4.021
463 4.061
464 4.017
465 3.929
466 3.931
467 3.901
468 3.882
469 3.952
470 3.925
471 3.869
472 3.966
473 4.09
474 4.038
475 4.128
476 4.128
477 4.073
478 4.181
479 4.181
480 4.18
481 4.161
482 4.194
483 4.158
484 4.106
485 4.059
486 3.694
487 3.491
488 3.78
489 3.9
490 4.061
491 4.121
492 3.979
493 3.971
494 4.021
495 4.12
496 4.123
497 4.11
498 4.08
499 4.014
500 4.01
501 3.948
502 3.871
503 3.955
504 4.032
505 4.018
506 4.168
507 4.235
508 4.175
509 4.115
510 4.052
511 4.01
512 4.091
513 4.049
514 3.953
515 3.906
516 3.967
517 3.695
518 3.477
519 3.611
520 3.867
521 3.941
522 4.016
523 3.937
524 4.009
525 4.133
526 4.09
527 3.746
528 3.838
529 4.087
530 4.13
531 4.191
532 4.202
533 4.158
534 4.102
535 4.117
536 4.241
537 4.148
538 4.15
539 4.18
540 4.088
541 4.009
542 4.099
543 4.149
544 4.187
545 4.226
546 4.239
547 4.242
548 4.195
549 4.218
550 4.271
551 4.252
552 4.269
553 4.265
554 4.255
555 4.301
556 4.282
557 4.197
558 4.148
559 4.097
560 4.044
561 4.145
562 4.185
563 4.14
564 4.163
565 4.176
566 4.142
567 4.146
568 4.222
569 4.191
570 4.183
571 4.143
572 4.153
573 4.316
574 4.34
575 4.305
576 4.244
577 4.264
578 4.275
579 4.219
580 4.254
581 4.295
582 4.318
583 4.364
584 4.371
585 4.341
586 4.266
587 4.26
588 4.321
589 4.158
590 3.984
591 4.178
592 4.28
593 4.292
594 4.288
595 4.304
596 4.288
597 4.32
598 4.318
599 4.281
600 4.293
601 4.269
602 4.222
603 4.243
604 4.323
605 4.342
606 4.321
607 4.307
608 4.293
609 4.255
610 4.235
611 4.239
612 4.249
613 4.232
614 4.182
615 4.181
616 4.151
617 4.076
618 4.142
619 4.207
620 4.236
621 4.277
622 4.25
623 4.226
624 4.205
625 4.17
626 4.158
627 4.242
628 4.297
629 4.302
630 4.255
631 4.238
632 4.18
633 4.234
634 4.213
635 4.23
636 4.231
637 4.222
638 4.283
639 4.283
640 4.2
641 4.169
642 4.155
643 4.201
644 4.189
645 4.198
646 4.164
647 4.172
648 4.203
649 4.194
650 4.072
651 4.218
652 4.242
653 4.183
654 4.151
655 4.088
656 3.82
657 3.512
658 3.889
659 4.079
660 4.095
661 4.132
662 4.158
663 4.145
664 4.098
665 4.111
666 4.123
667 4.101
668 4.092
669 4.12
670 4.111
671 4.097
672 4.079
673 4.069
674 4.062
675 4.057
676 4.051
677 4.046
678 4.042
679 4.038
680 4.034
681 4.031
682 4.029
683 4.027
684 4.025
685 4.024
686 4.023
687 4.023
688 4.023
689 4.03
690 4.053
691 4.061
692 4.041
693 4.028
694 4.035
695 4.014
696 4.011
697 4.024
698 3.971
699 4.02
700 4.032
701 3.978
702 3.953
703 3.97
704 3.99
705 4.032
706 4.007
707 3.96
708 3.965
709 3.93
710 3.905
711 3.921
712 3.868
713 3.854
714 3.863
715 3.856
716 3.842
717 3.86
718 3.856
719 3.807
720 3.809
721 3.817
722 3.819
723 3.815
724 3.832
725 3.823
726 3.791
727 3.802
728 3.795
729 3.726
730 3.711
731 3.78
732 3.772
733 3.77
734 3.771
735 3.772
736 3.733
737 3.723
738 3.718
739 3.635
740 3.641
741 3.621
742 3.595
743 3.65
744 3.704
745 3.667
746 3.706
747 3.693
748 3.706
749 3.685
750 3.644
