# Top-of-atmosphere (TOA) lunar irradiance from Miller and Turner (2009)
# First column wavelength (nm), second column TOA irradiance# Lunar phase angle: 79
# Irradiance units: mW/m^2-micrometer

300 0.03721
301 0.02767
302 0.03485
303 0.0333
304 0.0471
305 0.04387
306 0.04479
307 0.04144
308 0.0482
309 0.04862
310 0.03712
311 0.04932
312 0.05852
313 0.05083
314 0.05515
315 0.05068
316 0.05219
317 0.04771
318 0.06644
319 0.0511
320 0.05633
321 0.06959
322 0.05521
323 0.05787
324 0.05397
325 0.06469
326 0.07246
327 0.08262
328 0.08022
329 0.07459
330 0.09169
331 0.08466
332 0.08384
333 0.08137
334 0.07796
335 0.0834
336 0.08503
337 0.06731
338 0.07391
339 0.07935
340 0.08265
341 0.0913
342 0.08006
343 0.08909
344 0.08957
345 0.06462
346 0.08821
347 0.08188
348 0.08124
349 0.08472
350 0.07638
351 0.101
352 0.0901
353 0.08072
354 0.09742
355 0.1037
356 0.09723
357 0.08693
358 0.07897
359 0.05897
360 0.1009
361 0.0952
362 0.08439
363 0.0965
364 0.09114
365 0.09837
366 0.1129
367 0.1202
368 0.116
369 0.1035
370 0.1218
371 0.108
372 0.125
373 0.1033
374 0.08916
375 0.09099
376 0.1094
377 0.1074
378 0.1294
379 0.139
380 0.1063
381 0.1245
382 0.1132
383 0.08118
384 0.06767
385 0.09815
386 0.1033
387 0.1046
388 0.1022
389 0.09835
390 0.1258
391 0.1287
392 0.1499
393 0.1134
394 0.0494
395 0.1144
396 0.148
397 0.07868
398 0.08848
399 0.1687
400 0.1815
401 0.1823
402 0.1984
403 0.2016
404 0.1974
405 0.193
406 0.1876
407 0.1828
408 0.1854
409 0.188
410 0.1897
411 0.1757
412 0.1829
413 0.1902
414 0.1975
415 0.1983
416 0.1988
417 0.2014
418 0.1974
419 0.1974
420 0.1976
421 0.2025
422 0.2064
423 0.1994
424 0.197
425 0.2019
426 0.2005
427 0.1997
428 0.1924
429 0.1923
430 0.1746
431 0.1458
432 0.1807
433 0.1998
434 0.1973
435 0.1932
436 0.2078
437 0.2195
438 0.2128
439 0.2047
440 0.2133
441 0.2227
442 0.2313
443 0.2385
444 0.2393
445 0.2396
446 0.2357
447 0.2343
448 0.2481
449 0.2513
450 0.254
451 0.2656
452 0.2669
453 0.2546
454 0.2482
455 0.2598
456 0.2617
457 0.269
458 0.2693
459 0.2628
460 0.2614
461 0.2656
462 0.27
463 0.2728
464 0.2699
465 0.2641
466 0.2643
467 0.2624
468 0.2612
469 0.266
470 0.2643
471 0.2606
472 0.2673
473 0.2757
474 0.2723
475 0.2785
476 0.2785
477 0.2749
478 0.2824
479 0.2825
480 0.2825
481 0.2813
482 0.2837
483 0.2813
484 0.2779
485 0.2748
486 0.2502
487 0.2365
488 0.2562
489 0.2644
490 0.2754
491 0.2796
492 0.27
493 0.2696
494 0.2731
495 0.2799
496 0.2802
497 0.2794
498 0.2775
499 0.2731
500 0.2729
501 0.2688
502 0.2637
503 0.2695
504 0.2749
505 0.274
506 0.2843
507 0.289
508 0.285
509 0.281
510 0.2768
511 0.274
512 0.2797
513 0.2769
514 0.2705
515 0.2673
516 0.2716
517 0.2531
518 0.2382
519 0.2474
520 0.2651
521 0.2703
522 0.2755
523 0.2702
524 0.2752
525 0.2838
526 0.281
527 0.2575
528 0.2639
529 0.2811
530 0.2841
531 0.2885
532 0.2893
533 0.2864
534 0.2826
535 0.2838
536 0.2925
537 0.2861
538 0.2864
539 0.2885
540 0.2823
541 0.2769
542 0.2832
543 0.2868
544 0.2895
545 0.2923
546 0.2933
547 0.2937
548 0.2905
549 0.2922
550 0.296
551 0.2947
552 0.2961
553 0.2959
554 0.2953
555 0.2986
556 0.2974
557 0.2915
558 0.2883
559 0.2848
560 0.2812
561 0.2884
562 0.2913
563 0.2882
564 0.2899
565 0.2909
566 0.2887
567 0.2891
568 0.2945
569 0.2924
570 0.2919
571 0.2893
572 0.29
573 0.3016
574 0.3033
575 0.301
576 0.2969
577 0.2984
578 0.2992
579 0.2955
580 0.298
581 0.301
582 0.3027
583 0.306
584 0.3066
585 0.3046
586 0.2995
587 0.2992
588 0.3036
589 0.2922
590 0.28
591 0.2938
592 0.3011
593 0.302
594 0.3019
595 0.3031
596 0.3021
597 0.3045
598 0.3044
599 0.3019
600 0.3029
601 0.3013
602 0.2981
603 0.2997
604 0.3055
605 0.3069
606 0.3055
607 0.3047
608 0.3037
609 0.3012
610 0.2998
611 0.3003
612 0.3011
613 0.3
614 0.2965
615 0.2966
616 0.2945
617 0.2893
618 0.2941
619 0.2988
620 0.301
621 0.304
622 0.3022
623 0.3006
624 0.2993
625 0.2969
626 0.2961
627 0.3022
628 0.3062
629 0.3067
630 0.3035
631 0.3023
632 0.2983
633 0.3023
634 0.3009
635 0.3022
636 0.3024
637 0.3019
638 0.3063
639 0.3064
640 0.3006
641 0.2985
642 0.2976
643 0.301
644 0.3003
645 0.301
646 0.2987
647 0.2993
648 0.3017
649 0.3011
650 0.2925
651 0.3031
652 0.3049
653 0.3008
654 0.2986
655 0.2942
656 0.275
657 0.2529
658 0.2801
659 0.2939
660 0.2952
661 0.298
662 0.2999
663 0.2992
664 0.2958
665 0.2969
666 0.2978
667 0.2964
668 0.2958
669 0.298
670 0.2974
671 0.2965
672 0.2954
673 0.2947
674 0.2943
675 0.294
676 0.2937
677 0.2935
678 0.2933
679 0.2931
680 0.2929
681 0.2928
682 0.2927
683 0.2927
684 0.2927
685 0.2927
686 0.2927
687 0.2928
688 0.2929
689 0.2936
690 0.2953
691 0.296
692 0.2947
693 0.2938
694 0.2945
695 0.293
696 0.2929
697 0.294
698 0.2902
699 0.2939
700 0.2948
701 0.291
702 0.2893
703 0.2907
704 0.2922
705 0.2954
706 0.2937
707 0.2903
708 0.2908
709 0.2884
710 0.2866
711 0.2879
712 0.2841
713 0.2832
714 0.2839
715 0.2835
716 0.2826
717 0.284
718 0.2838
719 0.2803
720 0.2805
721 0.2812
722 0.2815
723 0.2813
724 0.2826
725 0.2821
726 0.2798
727 0.2808
728 0.2804
729 0.2753
730 0.2743
731 0.2795
732 0.279
733 0.279
734 0.2791
735 0.2794
736 0.2766
737 0.2759
738 0.2757
739 0.2696
740 0.2701
741 0.2688
742 0.2669
743 0.2711
744 0.2752
745 0.2725
746 0.2756
747 0.2746
748 0.2757
749 0.2743
750 0.2713
