# Top-of-atmosphere (TOA) lunar irradiance from Miller and Turner (2009) by 10 nm increments
# First column wavelength (nm), second column TOA irradiance# Phase angle = 94
# Units = mW/m^2-micrometer

300 0.0652
310 0.06501
320 0.09858
330 0.1604
340 0.1445
350 0.1335
360 0.1762
370 0.2126
380 0.1854
390 0.2193
400 0.3162
410 0.3303
420 0.3439
430 0.3037
440 0.3709
450 0.4414
460 0.4539
470 0.4587
480 0.49
490 0.4775
500 0.4729
510 0.4794
520 0.4589
530 0.4915
540 0.4881
550 0.5114
560 0.4857
570 0.5039
580 0.5141
590 0.4828
600 0.5219
610 0.5164
620 0.5181
630 0.522
640 0.5168
650 0.5026
660 0.507
670 0.5105
680 0.5025
690 0.5063
700 0.5052
710 0.4908
720 0.4802
730 0.4693
740 0.4619
750 0.4636
