# Top-of-atmosphere (TOA) lunar irradiance from Miller and Turner (2009)
# First column wavelength (nm), second column TOA irradiance# Lunar phase angle: 162
# Irradiance units: mW/m^2-micrometer

300 0.3931
301 0.2922
302 0.3679
303 0.3515
304 0.4971
305 0.4628
306 0.4724
307 0.4369
308 0.508
309 0.5123
310 0.3911
311 0.5195
312 0.6163
313 0.5351
314 0.5804
315 0.5333
316 0.549
317 0.5017
318 0.6985
319 0.5371
320 0.5919
321 0.731
322 0.5798
323 0.6076
324 0.5665
325 0.6788
326 0.7602
327 0.8665
328 0.8412
329 0.7819
330 0.9609
331 0.887
332 0.8783
333 0.8521
334 0.8162
335 0.8729
336 0.8897
337 0.7042
338 0.773
339 0.8297
340 0.8639
341 0.954
342 0.8364
343 0.9305
344 0.9352
345 0.6746
346 0.9205
347 0.8543
348 0.8474
349 0.8834
350 0.7963
351 1.052
352 0.9388
353 0.8408
354 1.015
355 1.079
356 1.012
357 0.9047
358 0.8216
359 0.6133
360 1.049
361 0.9896
362 0.877
363 1.003
364 0.9467
365 1.021
366 1.172
367 1.248
368 1.203
369 1.074
370 1.263
371 1.12
372 1.295
373 1.07
374 0.9237
375 0.9423
376 1.133
377 1.111
378 1.339
379 1.438
380 1.099
381 1.287
382 1.17
383 0.839
384 0.6992
385 1.014
386 1.067
387 1.08
388 1.055
389 1.015
390 1.297
391 1.328
392 1.546
393 1.169
394 0.509
395 1.178
396 1.524
397 0.8102
398 0.9108
399 1.736
400 1.867
401 1.875
402 2.04
403 2.072
404 2.029
405 1.983
406 1.927
407 1.877
408 1.903
409 1.93
410 1.946
411 1.803
412 1.876
413 1.95
414 2.024
415 2.032
416 2.037
417 2.063
418 2.022
419 2.021
420 2.022
421 2.072
422 2.112
423 2.039
424 2.015
425 2.064
426 2.049
427 2.041
428 1.965
429 1.964
430 1.782
431 1.488
432 1.844
433 2.038
434 2.012
435 1.97
436 2.118
437 2.237
438 2.168
439 2.084
440 2.172
441 2.267
442 2.354
443 2.426
444 2.433
445 2.436
446 2.396
447 2.381
448 2.521
449 2.553
450 2.579
451 2.696
452 2.709
453 2.583
454 2.518
455 2.634
456 2.653
457 2.726
458 2.729
459 2.662
460 2.647
461 2.689
462 2.733
463 2.76
464 2.731
465 2.671
466 2.673
467 2.653
468 2.64
469 2.688
470 2.669
471 2.632
472 2.698
473 2.783
474 2.748
475 2.809
476 2.809
477 2.772
478 2.846
479 2.847
480 2.846
481 2.833
482 2.856
483 2.832
484 2.796
485 2.765
486 2.517
487 2.378
488 2.576
489 2.657
490 2.768
491 2.809
492 2.712
493 2.707
494 2.741
495 2.809
496 2.811
497 2.803
498 2.782
499 2.738
500 2.735
501 2.693
502 2.641
503 2.699
504 2.752
505 2.742
506 2.845
507 2.891
508 2.85
509 2.809
510 2.767
511 2.738
512 2.794
513 2.765
514 2.7
515 2.668
516 2.71
517 2.525
518 2.376
519 2.467
520 2.643
521 2.694
522 2.745
523 2.692
524 2.741
525 2.826
526 2.797
527 2.562
528 2.625
529 2.796
530 2.825
531 2.868
532 2.875
533 2.845
534 2.807
535 2.818
536 2.903
537 2.839
538 2.841
539 2.862
540 2.799
541 2.746
542 2.807
543 2.842
544 2.868
545 2.895
546 2.904
547 2.907
548 2.875
549 2.891
550 2.927
551 2.914
552 2.927
553 2.924
554 2.918
555 2.949
556 2.937
557 2.878
558 2.845
559 2.81
560 2.774
561 2.844
562 2.872
563 2.841
564 2.857
565 2.866
566 2.843
567 2.847
568 2.899
569 2.878
570 2.872
571 2.845
572 2.852
573 2.965
574 2.981
575 2.958
576 2.916
577 2.93
578 2.938
579 2.9
580 2.924
581 2.953
582 2.969
583 3.001
584 3.005
585 2.986
586 2.934
587 2.93
588 2.973
589 2.861
590 2.741
591 2.875
592 2.945
593 2.954
594 2.951
595 2.963
596 2.952
597 2.974
598 2.973
599 2.948
600 2.957
601 2.941
602 2.908
603 2.923
604 2.979
605 2.992
606 2.977
607 2.969
608 2.959
609 2.933
610 2.919
611 2.923
612 2.93
613 2.918
614 2.884
615 2.884
616 2.863
617 2.812
618 2.858
619 2.902
620 2.923
621 2.951
622 2.933
623 2.917
624 2.903
625 2.879
626 2.871
627 2.929
628 2.967
629 2.971
630 2.939
631 2.927
632 2.887
633 2.925
634 2.911
635 2.923
636 2.924
637 2.918
638 2.96
639 2.961
640 2.904
641 2.883
642 2.873
643 2.905
644 2.897
645 2.903
646 2.88
647 2.886
648 2.908
649 2.902
650 2.818
651 2.919
652 2.936
653 2.895
654 2.874
655 2.83
656 2.645
657 2.432
658 2.693
659 2.825
660 2.836
661 2.862
662 2.88
663 2.872
664 2.839
665 2.849
666 2.857
667 2.843
668 2.837
669 2.856
670 2.85
671 2.841
672 2.829
673 2.822
674 2.818
675 2.814
676 2.81
677 2.807
678 2.805
679 2.802
680 2.8
681 2.798
682 2.796
683 2.795
684 2.794
685 2.794
686 2.794
687 2.794
688 2.794
689 2.8
690 2.815
691 2.821
692 2.807
693 2.799
694 2.804
695 2.79
696 2.788
697 2.797
698 2.76
699 2.795
700 2.803
701 2.766
702 2.749
703 2.762
704 2.776
705 2.805
706 2.788
707 2.755
708 2.759
709 2.735
710 2.718
711 2.729
712 2.693
713 2.683
714 2.69
715 2.685
716 2.676
717 2.688
718 2.686
719 2.652
720 2.653
721 2.659
722 2.661
723 2.658
724 2.67
725 2.664
726 2.643
727 2.651
728 2.646
729 2.598
730 2.588
731 2.636
732 2.631
733 2.629
734 2.63
735 2.632
736 2.605
737 2.598
738 2.595
739 2.537
740 2.542
741 2.528
742 2.51
743 2.548
744 2.586
745 2.561
746 2.588
747 2.579
748 2.589
749 2.574
750 2.546
