# Top-of-atmosphere (TOA) lunar irradiance from Miller and Turner (2009)
# First column wavelength (nm), second column TOA irradiance# Lunar phase angle: 179
# Irradiance units: mW/m^2-micrometer

300 0.6184
301 0.4597
302 0.5786
303 0.5528
304 0.7816
305 0.7277
306 0.7427
307 0.6868
308 0.7985
309 0.8052
310 0.6146
311 0.8163
312 0.9682
313 0.8406
314 0.9117
315 0.8375
316 0.8621
317 0.7878
318 1.097
319 0.8432
320 0.9291
321 1.147
322 0.91
323 0.9535
324 0.8889
325 1.065
326 1.193
327 1.359
328 1.319
329 1.226
330 1.507
331 1.391
332 1.377
333 1.336
334 1.279
335 1.368
336 1.394
337 1.103
338 1.211
339 1.3
340 1.353
341 1.494
342 1.31
343 1.457
344 1.464
345 1.056
346 1.441
347 1.337
348 1.326
349 1.383
350 1.246
351 1.646
352 1.469
353 1.315
354 1.587
355 1.688
356 1.583
357 1.415
358 1.285
359 0.9589
360 1.64
361 1.547
362 1.371
363 1.567
364 1.479
365 1.596
366 1.831
367 1.949
368 1.879
369 1.677
370 1.972
371 1.748
372 2.022
373 1.67
374 1.442
375 1.471
376 1.767
377 1.734
378 2.09
379 2.243
380 1.715
381 2.007
382 1.824
383 1.308
384 1.09
385 1.581
386 1.663
387 1.684
388 1.645
389 1.581
390 2.022
391 2.068
392 2.408
393 1.821
394 0.7929
395 1.835
396 2.374
397 1.262
398 1.418
399 2.702
400 2.906
401 2.919
402 3.175
403 3.224
404 3.157
405 3.085
406 2.998
407 2.92
408 2.96
409 3.001
410 3.026
411 2.803
412 2.917
413 3.031
414 3.146
415 3.158
416 3.165
417 3.205
418 3.141
419 3.139
420 3.141
421 3.218
422 3.28
423 3.167
424 3.128
425 3.204
426 3.181
427 3.167
428 3.049
429 3.047
430 2.765
431 2.309
432 2.861
433 3.161
434 3.12
435 3.055
436 3.284
437 3.468
438 3.361
439 3.231
440 3.367
441 3.514
442 3.647
443 3.759
444 3.77
445 3.774
446 3.711
447 3.687
448 3.904
449 3.953
450 3.994
451 4.174
452 4.194
453 3.998
454 3.897
455 4.077
456 4.105
457 4.218
458 4.221
459 4.118
460 4.094
461 4.159
462 4.226
463 4.268
464 4.222
465 4.129
466 4.131
467 4.1
468 4.079
469 4.154
470 4.125
471 4.066
472 4.168
473 4.298
474 4.244
475 4.339
476 4.338
477 4.28
478 4.394
479 4.394
480 4.393
481 4.373
482 4.408
483 4.369
484 4.314
485 4.265
486 3.882
487 3.668
488 3.972
489 4.098
490 4.267
491 4.33
492 4.181
493 4.173
494 4.225
495 4.328
496 4.332
497 4.318
498 4.286
499 4.218
500 4.213
501 4.148
502 4.067
503 4.156
504 4.236
505 4.221
506 4.379
507 4.449
508 4.386
509 4.323
510 4.257
511 4.212
512 4.298
513 4.254
514 4.153
515 4.103
516 4.167
517 3.882
518 3.652
519 3.793
520 4.062
521 4.14
522 4.218
523 4.136
524 4.211
525 4.341
526 4.296
527 3.935
528 4.031
529 4.293
530 4.338
531 4.402
532 4.414
533 4.367
534 4.308
535 4.324
536 4.455
537 4.356
538 4.359
539 4.39
540 4.294
541 4.211
542 4.305
543 4.358
544 4.397
545 4.438
546 4.452
547 4.455
548 4.406
549 4.429
550 4.485
551 4.465
552 4.483
553 4.479
554 4.468
555 4.516
556 4.496
557 4.407
558 4.355
559 4.302
560 4.246
561 4.352
562 4.394
563 4.347
564 4.371
565 4.384
566 4.349
567 4.354
568 4.433
569 4.4
570 4.391
571 4.35
572 4.36
573 4.532
574 4.556
575 4.52
576 4.456
577 4.477
578 4.488
579 4.43
580 4.466
581 4.509
582 4.533
583 4.581
584 4.588
585 4.557
586 4.478
587 4.472
588 4.536
589 4.365
590 4.182
591 4.386
592 4.492
593 4.505
594 4.501
595 4.518
596 4.501
597 4.534
598 4.532
599 4.493
600 4.506
601 4.481
602 4.431
603 4.453
604 4.538
605 4.558
606 4.535
607 4.521
608 4.506
609 4.466
610 4.444
611 4.449
612 4.459
613 4.441
614 4.388
615 4.388
616 4.356
617 4.277
618 4.347
619 4.415
620 4.445
621 4.488
622 4.46
623 4.435
624 4.413
625 4.376
626 4.363
627 4.452
628 4.509
629 4.514
630 4.465
631 4.446
632 4.386
633 4.443
634 4.421
635 4.438
636 4.439
637 4.43
638 4.494
639 4.494
640 4.407
641 4.375
642 4.359
643 4.408
644 4.395
645 4.404
646 4.369
647 4.377
648 4.41
649 4.4
650 4.272
651 4.425
652 4.45
653 4.388
654 4.355
655 4.288
656 4.008
657 3.685
658 4.079
659 4.279
660 4.295
661 4.334
662 4.361
663 4.348
664 4.298
665 4.312
666 4.324
667 4.302
668 4.292
669 4.321
670 4.312
671 4.298
672 4.279
673 4.267
674 4.261
675 4.255
676 4.249
677 4.244
678 4.239
679 4.235
680 4.231
681 4.228
682 4.225
683 4.223
684 4.221
685 4.22
686 4.219
687 4.219
688 4.219
689 4.227
690 4.25
691 4.258
692 4.237
693 4.224
694 4.232
695 4.209
696 4.206
697 4.22
698 4.164
699 4.215
700 4.228
701 4.171
702 4.145
703 4.163
704 4.184
705 4.228
706 4.202
707 4.152
708 4.157
709 4.121
710 4.094
711 4.111
712 4.055
713 4.041
714 4.05
715 4.043
716 4.028
717 4.047
718 4.042
719 3.991
720 3.993
721 4.001
722 4.004
723 3.999
724 4.017
725 4.007
726 3.974
727 3.986
728 3.979
729 3.906
730 3.89
731 3.962
732 3.954
733 3.951
734 3.952
735 3.954
736 3.913
737 3.902
738 3.898
739 3.81
740 3.817
741 3.796
742 3.768
743 3.826
744 3.882
745 3.843
746 3.885
747 3.87
748 3.884
749 3.862
750 3.819
