# Top-of-atmosphere (TOA) lunar irradiance from Miller and Turner (2009) by 10 nm increments
# First column wavelength (nm), second column TOA irradiance# Phase angle = 134
# Units = mW/m^2-micrometer

300 0.1904
310 0.1897
320 0.2875
330 0.4675
340 0.421
350 0.3886
360 0.5129
370 0.6183
380 0.5389
390 0.6371
400 0.9181
410 0.9585
420 0.9975
430 0.8804
440 1.075
450 1.278
460 1.314
470 1.327
480 1.417
490 1.38
500 1.366
510 1.383
520 1.323
530 1.417
540 1.406
550 1.473
560 1.398
570 1.449
580 1.478
590 1.387
600 1.499
610 1.482
620 1.486
630 1.496
640 1.481
650 1.439
660 1.451
670 1.46
680 1.436
690 1.447
700 1.443
710 1.401
720 1.37
730 1.338
740 1.316
750 1.32
