# Top-of-atmosphere (TOA) lunar irradiance from Miller and Turner (2009) by 10 nm increments
# First column wavelength (nm), second column TOA irradiance# Phase angle = 173
# Units = mW/m^2-micrometer

300 0.5282
310 0.5252
320 0.7941
330 1.288
340 1.157
350 1.066
360 1.404
370 1.689
380 1.469
390 1.732
400 2.491
410 2.595
420 2.694
430 2.373
440 2.889
450 3.429
460 3.516
470 3.543
480 3.775
490 3.668
500 3.623
510 3.662
520 3.496
530 3.734
540 3.697
550 3.863
560 3.659
570 3.785
580 3.851
590 3.607
600 3.888
610 3.836
620 3.838
630 3.857
640 3.808
650 3.692
660 3.714
670 3.73
680 3.661
690 3.679
700 3.66
710 3.546
720 3.46
730 3.371
740 3.309
750 3.312
