# Top-of-atmosphere (TOA) lunar irradiance from Miller and Turner (2009)
# First column wavelength (nm), second column TOA irradiance# Lunar phase angle: 76
# Irradiance units: mW/m^2-micrometer

300 0.03249
301 0.02416
302 0.03043
303 0.02908
304 0.04113
305 0.03831
306 0.03912
307 0.03619
308 0.04209
309 0.04246
310 0.03242
311 0.04308
312 0.05111
313 0.0444
314 0.04817
315 0.04426
316 0.04558
317 0.04167
318 0.05803
319 0.04464
320 0.0492
321 0.06078
322 0.04823
323 0.05055
324 0.04715
325 0.05651
326 0.0633
327 0.07217
328 0.07008
329 0.06516
330 0.0801
331 0.07396
332 0.07325
333 0.07109
334 0.06812
335 0.07287
336 0.07429
337 0.05881
338 0.06458
339 0.06933
340 0.07222
341 0.07977
342 0.06996
343 0.07785
344 0.07826
345 0.05647
346 0.07708
347 0.07155
348 0.07099
349 0.07404
350 0.06675
351 0.08822
352 0.07874
353 0.07054
354 0.08515
355 0.09062
356 0.08498
357 0.07598
358 0.06903
359 0.05154
360 0.08821
361 0.08321
362 0.07376
363 0.08435
364 0.07967
365 0.08599
366 0.09872
367 0.1051
368 0.1014
369 0.09047
370 0.1065
371 0.09442
372 0.1092
373 0.09027
374 0.07795
375 0.07955
376 0.09563
377 0.09387
378 0.1132
379 0.1215
380 0.09293
381 0.1088
382 0.09895
383 0.07099
384 0.05917
385 0.08583
386 0.09034
387 0.0915
388 0.0894
389 0.086
390 0.11
391 0.1126
392 0.1311
393 0.09916
394 0.0432
395 0.1
396 0.1294
397 0.06882
398 0.07739
399 0.1475
400 0.1587
401 0.1595
402 0.1735
403 0.1763
404 0.1727
405 0.1688
406 0.1641
407 0.1599
408 0.1622
409 0.1645
410 0.1659
411 0.1537
412 0.16
413 0.1664
414 0.1728
415 0.1735
416 0.1739
417 0.1762
418 0.1727
419 0.1727
420 0.1729
421 0.1772
422 0.1806
423 0.1745
424 0.1724
425 0.1767
426 0.1755
427 0.1748
428 0.1683
429 0.1683
430 0.1528
431 0.1276
432 0.1582
433 0.1749
434 0.1726
435 0.1691
436 0.1818
437 0.1921
438 0.1863
439 0.1791
440 0.1867
441 0.1949
442 0.2024
443 0.2087
444 0.2094
445 0.2097
446 0.2063
447 0.2051
448 0.2172
449 0.22
450 0.2224
451 0.2325
452 0.2337
453 0.2229
454 0.2173
455 0.2274
456 0.2291
457 0.2355
458 0.2357
459 0.2301
460 0.2288
461 0.2326
462 0.2364
463 0.2388
464 0.2363
465 0.2312
466 0.2314
467 0.2298
468 0.2287
469 0.233
470 0.2314
471 0.2282
472 0.234
473 0.2414
474 0.2385
475 0.2439
476 0.2439
477 0.2408
478 0.2473
479 0.2474
480 0.2474
481 0.2464
482 0.2484
483 0.2464
484 0.2434
485 0.2407
486 0.2191
487 0.2072
488 0.2244
489 0.2316
490 0.2413
491 0.2449
492 0.2366
493 0.2362
494 0.2393
495 0.2452
496 0.2455
497 0.2448
498 0.2431
499 0.2393
500 0.2391
501 0.2355
502 0.231
503 0.2361
504 0.2408
505 0.2401
506 0.2491
507 0.2532
508 0.2497
509 0.2462
510 0.2426
511 0.2401
512 0.2451
513 0.2426
514 0.237
515 0.2342
516 0.238
517 0.2218
518 0.2088
519 0.2169
520 0.2323
521 0.2369
522 0.2415
523 0.2368
524 0.2412
525 0.2488
526 0.2463
527 0.2257
528 0.2313
529 0.2464
530 0.2491
531 0.2529
532 0.2536
533 0.251
534 0.2478
535 0.2488
536 0.2564
537 0.2508
538 0.2511
539 0.253
540 0.2475
541 0.2428
542 0.2483
543 0.2515
544 0.2539
545 0.2563
546 0.2572
547 0.2575
548 0.2547
549 0.2562
550 0.2595
551 0.2585
552 0.2596
553 0.2595
554 0.259
555 0.2618
556 0.2608
557 0.2557
558 0.2528
559 0.2498
560 0.2467
561 0.2529
562 0.2555
563 0.2528
564 0.2543
565 0.2552
566 0.2532
567 0.2536
568 0.2583
569 0.2565
570 0.2561
571 0.2538
572 0.2544
573 0.2646
574 0.2661
575 0.2641
576 0.2604
577 0.2618
578 0.2625
579 0.2592
580 0.2614
581 0.2641
582 0.2656
583 0.2685
584 0.269
585 0.2673
586 0.2628
587 0.2625
588 0.2664
589 0.2564
590 0.2457
591 0.2578
592 0.2642
593 0.265
594 0.2649
595 0.266
596 0.2651
597 0.2672
598 0.2671
599 0.265
600 0.2658
601 0.2645
602 0.2616
603 0.263
604 0.2681
605 0.2694
606 0.2681
607 0.2674
608 0.2666
609 0.2644
610 0.2632
611 0.2636
612 0.2643
613 0.2633
614 0.2603
615 0.2604
616 0.2586
617 0.254
618 0.2582
619 0.2623
620 0.2642
621 0.2669
622 0.2653
623 0.264
624 0.2627
625 0.2606
626 0.26
627 0.2654
628 0.2689
629 0.2693
630 0.2665
631 0.2655
632 0.2619
633 0.2654
634 0.2642
635 0.2654
636 0.2655
637 0.2651
638 0.269
639 0.2691
640 0.264
641 0.2622
642 0.2613
643 0.2644
644 0.2637
645 0.2643
646 0.2623
647 0.2629
648 0.265
649 0.2645
650 0.2569
651 0.2662
652 0.2679
653 0.2642
654 0.2623
655 0.2584
656 0.2416
657 0.2222
658 0.2461
659 0.2582
660 0.2593
661 0.2618
662 0.2635
663 0.2628
664 0.2599
665 0.2608
666 0.2617
667 0.2604
668 0.2599
669 0.2618
670 0.2613
671 0.2606
672 0.2595
673 0.2589
674 0.2586
675 0.2584
676 0.2581
677 0.2579
678 0.2577
679 0.2576
680 0.2574
681 0.2573
682 0.2573
683 0.2572
684 0.2572
685 0.2572
686 0.2573
687 0.2574
688 0.2575
689 0.2581
690 0.2596
691 0.2602
692 0.259
693 0.2583
694 0.2589
695 0.2576
696 0.2575
697 0.2584
698 0.2551
699 0.2583
700 0.2592
701 0.2558
702 0.2543
703 0.2556
704 0.2569
705 0.2597
706 0.2582
707 0.2552
708 0.2557
709 0.2535
710 0.252
711 0.2531
712 0.2498
713 0.249
714 0.2497
715 0.2493
716 0.2485
717 0.2497
718 0.2496
719 0.2465
720 0.2467
721 0.2473
722 0.2476
723 0.2474
724 0.2486
725 0.2481
726 0.2461
727 0.2469
728 0.2466
729 0.2422
730 0.2413
731 0.2459
732 0.2454
733 0.2454
734 0.2455
735 0.2457
736 0.2433
737 0.2427
738 0.2425
739 0.2372
740 0.2376
741 0.2364
742 0.2348
743 0.2385
744 0.2421
745 0.2398
746 0.2424
747 0.2416
748 0.2426
749 0.2413
750 0.2387
