# Top-of-atmosphere (TOA) lunar irradiance from Miller and Turner (2009) by 10 nm increments
# First column wavelength (nm), second column TOA irradiance# Phase angle = 78
# Units = mW/m^2-micrometer

300 0.03557
310 0.03549
320 0.05384
330 0.08765
340 0.07901
350 0.07303
360 0.09649
370 0.1165
380 0.1016
390 0.1203
400 0.1735
410 0.1814
420 0.189
430 0.167
440 0.2041
450 0.243
460 0.25
470 0.2528
480 0.2703
490 0.2635
500 0.2612
510 0.2649
520 0.2537
530 0.2719
540 0.2702
550 0.2833
560 0.2692
570 0.2795
580 0.2853
590 0.2681
600 0.29
610 0.2871
620 0.2882
630 0.2906
640 0.2879
650 0.2801
660 0.2827
670 0.2849
680 0.2806
690 0.2829
700 0.2824
710 0.2746
720 0.2688
730 0.2628
740 0.2588
750 0.26
