# Top-of-atmosphere (TOA) lunar irradiance from Miller and Turner (2009)
# First column wavelength (nm), second column TOA irradiance# Lunar phase angle: 156
# Irradiance units: mW/m^2-micrometer

300 0.3357
301 0.2496
302 0.3142
303 0.3002
304 0.4246
305 0.3954
306 0.4036
307 0.3733
308 0.434
309 0.4377
310 0.3342
311 0.4439
312 0.5265
313 0.4572
314 0.496
315 0.4557
316 0.4691
317 0.4287
318 0.5969
319 0.459
320 0.5058
321 0.6248
322 0.4956
323 0.5193
324 0.4843
325 0.5803
326 0.6499
327 0.7408
328 0.7191
329 0.6685
330 0.8216
331 0.7584
332 0.7509
333 0.7286
334 0.698
335 0.7465
336 0.7608
337 0.6022
338 0.6611
339 0.7096
340 0.7389
341 0.816
342 0.7155
343 0.7959
344 0.8
345 0.5771
346 0.7875
347 0.7308
348 0.725
349 0.7559
350 0.6813
351 0.9003
352 0.8033
353 0.7195
354 0.8682
355 0.9238
356 0.8661
357 0.7742
358 0.7032
359 0.525
360 0.8981
361 0.847
362 0.7507
363 0.8582
364 0.8104
365 0.8745
366 1.004
367 1.068
368 1.03
369 0.9192
370 1.082
371 0.9588
372 1.109
373 0.9162
374 0.791
375 0.807
376 0.9699
377 0.9519
378 1.147
379 1.232
380 0.9416
381 1.102
382 1.002
383 0.7188
384 0.599
385 0.8686
386 0.914
387 0.9256
388 0.9041
389 0.8695
390 1.112
391 1.138
392 1.324
393 1.002
394 0.4362
395 1.01
396 1.306
397 0.6944
398 0.7807
399 1.488
400 1.6
401 1.608
402 1.749
403 1.776
404 1.74
405 1.7
406 1.653
407 1.609
408 1.632
409 1.655
410 1.669
411 1.546
412 1.609
413 1.672
414 1.736
415 1.743
416 1.747
417 1.769
418 1.734
419 1.733
420 1.735
421 1.777
422 1.812
423 1.75
424 1.728
425 1.771
426 1.758
427 1.751
428 1.686
429 1.685
430 1.529
431 1.277
432 1.582
433 1.749
434 1.726
435 1.691
436 1.817
437 1.92
438 1.861
439 1.789
440 1.864
441 1.946
442 2.02
443 2.083
444 2.089
445 2.091
446 2.057
447 2.044
448 2.165
449 2.192
450 2.215
451 2.315
452 2.327
453 2.218
454 2.163
455 2.263
456 2.279
457 2.342
458 2.344
459 2.287
460 2.274
461 2.31
462 2.348
463 2.371
464 2.346
465 2.295
466 2.296
467 2.279
468 2.268
469 2.31
470 2.294
471 2.262
472 2.319
473 2.392
474 2.362
475 2.415
476 2.415
477 2.383
478 2.447
479 2.447
480 2.447
481 2.436
482 2.456
483 2.434
484 2.404
485 2.377
486 2.164
487 2.045
488 2.215
489 2.285
490 2.38
491 2.416
492 2.333
493 2.328
494 2.358
495 2.416
496 2.418
497 2.411
498 2.393
499 2.355
500 2.353
501 2.317
502 2.272
503 2.322
504 2.368
505 2.36
506 2.448
507 2.488
508 2.453
509 2.418
510 2.381
511 2.356
512 2.405
513 2.38
514 2.324
515 2.297
516 2.333
517 2.174
518 2.045
519 2.124
520 2.275
521 2.319
522 2.363
523 2.318
524 2.36
525 2.433
526 2.408
527 2.206
528 2.261
529 2.408
530 2.433
531 2.47
532 2.476
533 2.451
534 2.418
535 2.427
536 2.501
537 2.446
538 2.448
539 2.466
540 2.412
541 2.366
542 2.419
543 2.449
544 2.471
545 2.495
546 2.503
547 2.505
548 2.478
549 2.491
550 2.523
551 2.512
552 2.523
553 2.521
554 2.515
555 2.542
556 2.532
557 2.481
558 2.453
559 2.423
560 2.392
561 2.452
562 2.476
563 2.45
564 2.464
565 2.472
566 2.452
567 2.455
568 2.5
569 2.482
570 2.477
571 2.454
572 2.46
573 2.558
574 2.572
575 2.552
576 2.516
577 2.528
578 2.535
579 2.502
580 2.523
581 2.548
582 2.562
583 2.589
584 2.594
585 2.577
586 2.532
587 2.529
588 2.566
589 2.469
590 2.366
591 2.482
592 2.542
593 2.55
594 2.548
595 2.558
596 2.548
597 2.568
598 2.567
599 2.545
600 2.553
601 2.539
602 2.511
603 2.524
604 2.572
605 2.584
606 2.571
607 2.564
608 2.556
609 2.533
610 2.522
611 2.525
612 2.531
613 2.521
614 2.491
615 2.491
616 2.474
617 2.429
618 2.469
619 2.508
620 2.525
621 2.55
622 2.535
623 2.521
624 2.509
625 2.488
626 2.481
627 2.532
628 2.565
629 2.568
630 2.54
631 2.53
632 2.496
633 2.529
634 2.517
635 2.527
636 2.528
637 2.523
638 2.56
639 2.56
640 2.511
641 2.493
642 2.484
643 2.513
644 2.506
645 2.511
646 2.491
647 2.496
648 2.516
649 2.51
650 2.437
651 2.525
652 2.54
653 2.505
654 2.486
655 2.449
656 2.289
657 2.105
658 2.33
659 2.445
660 2.454
661 2.477
662 2.493
663 2.486
664 2.457
665 2.466
666 2.473
667 2.461
668 2.455
669 2.473
670 2.468
671 2.46
672 2.449
673 2.443
674 2.44
675 2.436
676 2.434
677 2.431
678 2.429
679 2.427
680 2.425
681 2.423
682 2.422
683 2.421
684 2.42
685 2.42
686 2.42
687 2.42
688 2.42
689 2.425
690 2.439
691 2.444
692 2.432
693 2.425
694 2.43
695 2.417
696 2.416
697 2.424
698 2.392
699 2.422
700 2.429
701 2.397
702 2.383
703 2.394
704 2.406
705 2.431
706 2.417
707 2.388
708 2.392
709 2.371
710 2.356
711 2.366
712 2.335
713 2.326
714 2.332
715 2.328
716 2.32
717 2.331
718 2.329
719 2.3
720 2.301
721 2.306
722 2.308
723 2.306
724 2.316
725 2.311
726 2.292
727 2.299
728 2.296
729 2.254
730 2.245
731 2.287
732 2.282
733 2.281
734 2.282
735 2.284
736 2.26
737 2.254
738 2.252
739 2.202
740 2.206
741 2.194
742 2.178
743 2.212
744 2.245
745 2.223
746 2.247
747 2.239
748 2.247
749 2.235
750 2.21
