# Top-of-atmosphere (TOA) lunar irradiance from Miller and Turner (2009)
# First column wavelength (nm), second column TOA irradiance# Lunar phase angle: 164
# Irradiance units: mW/m^2-micrometer

300 0.4146
301 0.3082
302 0.388
303 0.3707
304 0.5242
305 0.4881
306 0.4982
307 0.4608
308 0.5358
309 0.5403
310 0.4125
311 0.5479
312 0.6499
313 0.5643
314 0.6121
315 0.5623
316 0.5789
317 0.529
318 0.7365
319 0.5664
320 0.6241
321 0.7708
322 0.6114
323 0.6406
324 0.5973
325 0.7157
326 0.8015
327 0.9136
328 0.8869
329 0.8244
330 1.013
331 0.9352
332 0.9259
333 0.8983
334 0.8605
335 0.9203
336 0.938
337 0.7424
338 0.8149
339 0.8746
340 0.9107
341 1.006
342 0.8817
343 0.9809
344 0.9858
345 0.7111
346 0.9703
347 0.9005
348 0.8932
349 0.9312
350 0.8393
351 1.109
352 0.9896
353 0.8862
354 1.069
355 1.138
356 1.067
357 0.9535
358 0.8659
359 0.6464
360 1.106
361 1.043
362 0.9242
363 1.057
364 0.9976
365 1.076
366 1.235
367 1.315
368 1.268
369 1.131
370 1.331
371 1.18
372 1.365
373 1.127
374 0.9733
375 0.993
376 1.193
377 1.171
378 1.411
379 1.515
380 1.158
381 1.356
382 1.233
383 0.884
384 0.7366
385 1.068
386 1.124
387 1.138
388 1.112
389 1.069
390 1.367
391 1.399
392 1.628
393 1.231
394 0.5363
395 1.241
396 1.606
397 0.8535
398 0.9595
399 1.829
400 1.967
401 1.976
402 2.149
403 2.183
404 2.137
405 2.089
406 2.03
407 1.977
408 2.005
409 2.033
410 2.05
411 1.899
412 1.976
413 2.054
414 2.132
415 2.14
416 2.145
417 2.173
418 2.129
419 2.128
420 2.13
421 2.182
422 2.224
423 2.148
424 2.122
425 2.173
426 2.158
427 2.149
428 2.069
429 2.068
430 1.877
431 1.567
432 1.942
433 2.146
434 2.118
435 2.074
436 2.23
437 2.355
438 2.283
439 2.195
440 2.287
441 2.387
442 2.478
443 2.554
444 2.562
445 2.565
446 2.522
447 2.506
448 2.654
449 2.687
450 2.715
451 2.838
452 2.852
453 2.719
454 2.651
455 2.773
456 2.793
457 2.87
458 2.872
459 2.802
460 2.786
461 2.831
462 2.877
463 2.905
464 2.874
465 2.811
466 2.813
467 2.792
468 2.778
469 2.829
470 2.809
471 2.77
472 2.84
473 2.929
474 2.892
475 2.957
476 2.956
477 2.917
478 2.995
479 2.996
480 2.995
481 2.982
482 3.006
483 2.98
484 2.943
485 2.909
486 2.648
487 2.502
488 2.71
489 2.796
490 2.912
491 2.955
492 2.853
493 2.848
494 2.884
495 2.955
496 2.958
497 2.949
498 2.927
499 2.881
500 2.878
501 2.833
502 2.779
503 2.839
504 2.895
505 2.885
506 2.993
507 3.041
508 2.998
509 2.955
510 2.91
511 2.88
512 2.939
513 2.909
514 2.841
515 2.806
516 2.851
517 2.656
518 2.499
519 2.595
520 2.78
521 2.833
522 2.887
523 2.831
524 2.883
525 2.972
526 2.941
527 2.695
528 2.761
529 2.94
530 2.971
531 3.016
532 3.024
533 2.992
534 2.952
535 2.963
536 3.053
537 2.986
538 2.988
539 3.01
540 2.944
541 2.887
542 2.952
543 2.988
544 3.016
545 3.044
546 3.054
547 3.056
548 3.023
549 3.039
550 3.078
551 3.064
552 3.077
553 3.074
554 3.067
555 3.101
556 3.087
557 3.026
558 2.991
559 2.954
560 2.917
561 2.99
562 3.019
563 2.986
564 3.003
565 3.013
566 2.989
567 2.992
568 3.047
569 3.025
570 3.019
571 2.991
572 2.998
573 3.116
574 3.134
575 3.109
576 3.065
577 3.08
578 3.088
579 3.048
580 3.073
581 3.103
582 3.12
583 3.153
584 3.159
585 3.138
586 3.083
587 3.079
588 3.124
589 3.006
590 2.88
591 3.021
592 3.095
593 3.104
594 3.101
595 3.114
596 3.102
597 3.125
598 3.124
599 3.097
600 3.107
601 3.09
602 3.056
603 3.071
604 3.13
605 3.144
606 3.128
607 3.119
608 3.109
609 3.082
610 3.067
611 3.07
612 3.078
613 3.066
614 3.029
615 3.029
616 3.008
617 2.954
618 3.002
619 3.049
620 3.07
621 3.1
622 3.081
623 3.064
624 3.049
625 3.024
626 3.015
627 3.077
628 3.117
629 3.12
630 3.087
631 3.074
632 3.033
633 3.072
634 3.057
635 3.07
636 3.071
637 3.065
638 3.109
639 3.11
640 3.049
641 3.027
642 3.017
643 3.051
644 3.043
645 3.049
646 3.025
647 3.031
648 3.054
649 3.047
650 2.959
651 3.065
652 3.083
653 3.04
654 3.017
655 2.972
656 2.777
657 2.554
658 2.828
659 2.966
660 2.978
661 3.005
662 3.024
663 3.015
664 2.981
665 2.991
666 3
667 2.984
668 2.978
669 2.999
670 2.992
671 2.983
672 2.97
673 2.962
674 2.958
675 2.954
676 2.95
677 2.947
678 2.944
679 2.941
680 2.939
681 2.937
682 2.935
683 2.934
684 2.933
685 2.932
686 2.932
687 2.932
688 2.933
689 2.938
690 2.955
691 2.961
692 2.946
693 2.937
694 2.943
695 2.928
696 2.926
697 2.936
698 2.897
699 2.933
700 2.942
701 2.903
702 2.885
703 2.898
704 2.913
705 2.943
706 2.925
707 2.891
708 2.895
709 2.87
710 2.852
711 2.864
712 2.825
713 2.815
714 2.822
715 2.817
716 2.807
717 2.82
718 2.818
719 2.782
720 2.784
721 2.79
722 2.792
723 2.789
724 2.802
725 2.795
726 2.772
727 2.781
728 2.776
729 2.725
730 2.714
731 2.765
732 2.759
733 2.758
734 2.759
735 2.761
736 2.732
737 2.725
738 2.722
739 2.661
740 2.666
741 2.651
742 2.632
743 2.673
744 2.713
745 2.686
746 2.715
747 2.705
748 2.715
749 2.7
750 2.67
