# Top-of-atmosphere (TOA) lunar irradiance from Miller and Turner (2009)
# First column wavelength (nm), second column TOA irradiance# Lunar phase angle: 158
# Irradiance units: mW/m^2-micrometer

300 0.3537
301 0.263
302 0.3311
303 0.3163
304 0.4473
305 0.4165
306 0.4252
307 0.3932
308 0.4573
309 0.4611
310 0.352
311 0.4676
312 0.5547
313 0.4817
314 0.5225
315 0.48
316 0.4942
317 0.4516
318 0.6288
319 0.4836
320 0.5329
321 0.6582
322 0.522
323 0.547
324 0.5101
325 0.6112
326 0.6845
327 0.7803
328 0.7574
329 0.7041
330 0.8653
331 0.7988
332 0.7909
333 0.7674
334 0.7351
335 0.7862
336 0.8013
337 0.6342
338 0.6962
339 0.7473
340 0.7782
341 0.8594
342 0.7535
343 0.8382
344 0.8425
345 0.6077
346 0.8293
347 0.7696
348 0.7634
349 0.7959
350 0.7174
351 0.948
352 0.8459
353 0.7576
354 0.9142
355 0.9727
356 0.912
357 0.8152
358 0.7404
359 0.5527
360 0.9456
361 0.8918
362 0.7904
363 0.9036
364 0.8532
365 0.9207
366 1.057
367 1.125
368 1.085
369 0.9677
370 1.139
371 1.009
372 1.168
373 0.9645
374 0.8327
375 0.8495
376 1.021
377 1.002
378 1.208
379 1.296
380 0.9912
381 1.16
382 1.055
383 0.7566
384 0.6304
385 0.9143
386 0.962
387 0.9742
388 0.9516
389 0.9152
390 1.17
391 1.197
392 1.394
393 1.054
394 0.4591
395 1.063
396 1.375
397 0.7308
398 0.8216
399 1.566
400 1.684
401 1.692
402 1.841
403 1.869
404 1.831
405 1.789
406 1.739
407 1.694
408 1.717
409 1.741
410 1.756
411 1.627
412 1.693
413 1.76
414 1.827
415 1.834
416 1.838
417 1.862
418 1.825
419 1.824
420 1.825
421 1.87
422 1.906
423 1.841
424 1.818
425 1.863
426 1.85
427 1.842
428 1.774
429 1.773
430 1.609
431 1.343
432 1.665
433 1.84
434 1.816
435 1.778
436 1.912
437 2.019
438 1.958
439 1.882
440 1.961
441 2.047
442 2.125
443 2.191
444 2.197
445 2.2
446 2.164
447 2.15
448 2.277
449 2.306
450 2.33
451 2.435
452 2.447
453 2.333
454 2.274
455 2.38
456 2.397
457 2.463
458 2.465
459 2.405
460 2.391
461 2.43
462 2.469
463 2.494
464 2.467
465 2.413
466 2.415
467 2.397
468 2.385
469 2.429
470 2.412
471 2.378
472 2.438
473 2.515
474 2.483
475 2.539
476 2.539
477 2.505
478 2.572
479 2.573
480 2.572
481 2.561
482 2.582
483 2.559
484 2.528
485 2.499
486 2.275
487 2.15
488 2.328
489 2.403
490 2.502
491 2.54
492 2.452
493 2.448
494 2.479
495 2.54
496 2.542
497 2.534
498 2.516
499 2.476
500 2.473
501 2.435
502 2.388
503 2.441
504 2.489
505 2.48
506 2.573
507 2.615
508 2.578
509 2.541
510 2.503
511 2.477
512 2.527
513 2.502
514 2.443
515 2.413
516 2.452
517 2.284
518 2.149
519 2.232
520 2.391
521 2.437
522 2.484
523 2.435
524 2.48
525 2.557
526 2.531
527 2.319
528 2.375
529 2.53
530 2.557
531 2.595
532 2.602
533 2.575
534 2.541
535 2.55
536 2.628
537 2.57
538 2.572
539 2.591
540 2.534
541 2.485
542 2.541
543 2.573
544 2.596
545 2.621
546 2.629
547 2.632
548 2.603
549 2.617
550 2.65
551 2.639
552 2.65
553 2.648
554 2.642
555 2.671
556 2.659
557 2.606
558 2.577
559 2.545
560 2.513
561 2.576
562 2.601
563 2.573
564 2.588
565 2.596
566 2.575
567 2.578
568 2.626
569 2.607
570 2.602
571 2.578
572 2.584
573 2.686
574 2.701
575 2.68
576 2.642
577 2.655
578 2.662
579 2.628
580 2.65
581 2.675
582 2.69
583 2.719
584 2.723
585 2.705
586 2.659
587 2.655
588 2.694
589 2.592
590 2.484
591 2.606
592 2.669
593 2.677
594 2.675
595 2.686
596 2.676
597 2.696
598 2.695
599 2.672
600 2.68
601 2.666
602 2.636
603 2.65
604 2.701
605 2.713
606 2.699
607 2.692
608 2.683
609 2.659
610 2.647
611 2.65
612 2.657
613 2.646
614 2.615
615 2.615
616 2.596
617 2.55
618 2.592
619 2.632
620 2.651
621 2.677
622 2.66
623 2.646
624 2.633
625 2.611
626 2.604
627 2.657
628 2.692
629 2.695
630 2.666
631 2.656
632 2.619
633 2.654
634 2.641
635 2.652
636 2.653
637 2.648
638 2.686
639 2.687
640 2.635
641 2.616
642 2.607
643 2.636
644 2.629
645 2.635
646 2.614
647 2.619
648 2.64
649 2.634
650 2.557
651 2.65
652 2.665
653 2.628
654 2.608
655 2.569
656 2.401
657 2.208
658 2.445
659 2.565
660 2.575
661 2.599
662 2.615
663 2.608
664 2.578
665 2.586
666 2.594
667 2.581
668 2.576
669 2.594
670 2.588
671 2.58
672 2.569
673 2.563
674 2.559
675 2.556
676 2.553
677 2.55
678 2.547
679 2.545
680 2.543
681 2.542
682 2.54
683 2.539
684 2.538
685 2.538
686 2.538
687 2.538
688 2.538
689 2.543
690 2.558
691 2.563
692 2.551
693 2.543
694 2.548
695 2.535
696 2.533
697 2.542
698 2.508
699 2.54
700 2.548
701 2.514
702 2.498
703 2.51
704 2.523
705 2.549
706 2.534
707 2.504
708 2.508
709 2.486
710 2.47
711 2.481
712 2.448
713 2.439
714 2.445
715 2.441
716 2.433
717 2.444
718 2.442
719 2.411
720 2.412
721 2.418
722 2.42
723 2.417
724 2.428
725 2.423
726 2.403
727 2.41
728 2.406
729 2.363
730 2.353
731 2.397
732 2.392
733 2.391
734 2.392
735 2.394
736 2.369
737 2.363
738 2.36
739 2.308
740 2.312
741 2.3
742 2.283
743 2.318
744 2.353
745 2.33
746 2.355
747 2.346
748 2.355
749 2.342
750 2.316
