# Top-of-atmosphere (TOA) lunar irradiance from Miller and Turner (2009)
# First column wavelength (nm), second column TOA irradiance# Lunar phase angle: 99
# Irradiance units: mW/m^2-micrometer

300 0.07684
301 0.05714
302 0.07195
303 0.06875
304 0.09725
305 0.09057
306 0.09247
307 0.08553
308 0.09948
309 0.1003
310 0.07661
311 0.1018
312 0.1208
313 0.1049
314 0.1138
315 0.1046
316 0.1077
317 0.09841
318 0.137
319 0.1054
320 0.1162
321 0.1435
322 0.1138
323 0.1193
324 0.1113
325 0.1334
326 0.1494
327 0.1703
328 0.1653
329 0.1537
330 0.189
331 0.1745
332 0.1728
333 0.1677
334 0.1606
335 0.1718
336 0.1752
337 0.1387
338 0.1522
339 0.1634
340 0.1702
341 0.188
342 0.1649
343 0.1835
344 0.1844
345 0.1331
346 0.1816
347 0.1686
348 0.1672
349 0.1744
350 0.1572
351 0.2078
352 0.1854
353 0.1661
354 0.2005
355 0.2133
356 0.2
357 0.1789
358 0.1625
359 0.1213
360 0.2076
361 0.1958
362 0.1736
363 0.1984
364 0.1874
365 0.2023
366 0.2322
367 0.2472
368 0.2384
369 0.2127
370 0.2504
371 0.222
372 0.2568
373 0.2122
374 0.1832
375 0.187
376 0.2247
377 0.2206
378 0.2659
379 0.2855
380 0.2183
381 0.2557
382 0.2324
383 0.1667
384 0.139
385 0.2016
386 0.2121
387 0.2148
388 0.2099
389 0.2019
390 0.2582
391 0.2642
392 0.3077
393 0.2327
394 0.1014
395 0.2347
396 0.3037
397 0.1615
398 0.1815
399 0.346
400 0.3722
401 0.374
402 0.407
403 0.4134
404 0.4049
405 0.3958
406 0.3848
407 0.3748
408 0.3801
409 0.3855
410 0.3888
411 0.3603
412 0.375
413 0.3898
414 0.4047
415 0.4063
416 0.4074
417 0.4127
418 0.4045
419 0.4044
420 0.4048
421 0.4148
422 0.4229
423 0.4085
424 0.4036
425 0.4135
426 0.4107
427 0.409
428 0.3939
429 0.3938
430 0.3575
431 0.2985
432 0.37
433 0.409
434 0.4038
435 0.3955
436 0.4252
437 0.4492
438 0.4355
439 0.4188
440 0.4365
441 0.4557
442 0.4732
443 0.4878
444 0.4894
445 0.49
446 0.482
447 0.4791
448 0.5074
449 0.514
450 0.5194
451 0.543
452 0.5458
453 0.5204
454 0.5074
455 0.531
456 0.5349
457 0.5498
458 0.5503
459 0.5371
460 0.5341
461 0.5427
462 0.5516
463 0.5572
464 0.5514
465 0.5395
466 0.5399
467 0.5359
468 0.5334
469 0.5433
470 0.5396
471 0.5322
472 0.5457
473 0.5629
474 0.556
475 0.5685
476 0.5686
477 0.5612
478 0.5763
479 0.5765
480 0.5765
481 0.5741
482 0.5788
483 0.5739
484 0.5669
485 0.5605
486 0.5104
487 0.4824
488 0.5226
489 0.5393
490 0.5617
491 0.5702
492 0.5507
493 0.5498
494 0.5568
495 0.5706
496 0.5713
497 0.5696
498 0.5656
499 0.5567
500 0.5562
501 0.5478
502 0.5373
503 0.5492
504 0.56
505 0.5582
506 0.5792
507 0.5887
508 0.5805
509 0.5724
510 0.5637
511 0.558
512 0.5695
513 0.5638
514 0.5507
515 0.5442
516 0.5529
517 0.5152
518 0.4849
519 0.5037
520 0.5396
521 0.55
522 0.5607
523 0.5499
524 0.56
525 0.5775
526 0.5717
527 0.5238
528 0.5368
529 0.5718
530 0.5779
531 0.5867
532 0.5884
533 0.5824
534 0.5747
535 0.577
536 0.5946
537 0.5817
538 0.5822
539 0.5865
540 0.5738
541 0.5629
542 0.5757
543 0.5829
544 0.5884
545 0.594
546 0.596
547 0.5967
548 0.5902
549 0.5936
550 0.6012
551 0.5987
552 0.6013
553 0.6009
554 0.5997
555 0.6063
556 0.6038
557 0.592
558 0.5853
559 0.5782
560 0.5709
561 0.5853
562 0.5912
563 0.585
564 0.5884
565 0.5904
566 0.5858
567 0.5866
568 0.5975
569 0.5933
570 0.5922
571 0.5868
572 0.5883
573 0.6117
574 0.6152
575 0.6105
576 0.602
577 0.6051
578 0.6068
579 0.599
580 0.6041
581 0.6101
582 0.6136
583 0.6203
584 0.6214
585 0.6174
586 0.6069
587 0.6062
588 0.6151
589 0.592
590 0.5674
591 0.5953
592 0.6099
593 0.6118
594 0.6114
595 0.614
596 0.6118
597 0.6166
598 0.6164
599 0.6113
600 0.6133
601 0.61
602 0.6034
603 0.6066
604 0.6183
605 0.6212
606 0.6183
607 0.6166
608 0.6147
609 0.6094
610 0.6067
611 0.6075
612 0.6091
613 0.6068
614 0.5998
615 0.5999
616 0.5957
617 0.5851
618 0.5948
619 0.6043
620 0.6086
621 0.6147
622 0.611
623 0.6078
624 0.605
625 0.6001
626 0.5985
627 0.6108
628 0.6189
629 0.6197
630 0.6132
631 0.6109
632 0.6027
633 0.6107
634 0.6079
635 0.6105
636 0.6108
637 0.6097
638 0.6187
639 0.6189
640 0.607
641 0.6028
642 0.6008
643 0.6077
644 0.6062
645 0.6076
646 0.6029
647 0.6042
648 0.609
649 0.6077
650 0.5902
651 0.6116
652 0.6153
653 0.6069
654 0.6024
655 0.5934
656 0.5548
657 0.5102
658 0.565
659 0.5928
660 0.5953
661 0.6009
662 0.6048
663 0.6032
664 0.5964
665 0.5985
666 0.6004
667 0.5975
668 0.5963
669 0.6006
670 0.5994
671 0.5976
672 0.5952
673 0.5938
674 0.593
675 0.5924
676 0.5918
677 0.5912
678 0.5907
679 0.5903
680 0.59
681 0.5897
682 0.5895
683 0.5894
684 0.5893
685 0.5893
686 0.5894
687 0.5895
688 0.5897
689 0.591
690 0.5944
691 0.5957
692 0.593
693 0.5912
694 0.5925
695 0.5896
696 0.5893
697 0.5914
698 0.5837
699 0.5911
700 0.593
701 0.5853
702 0.5818
703 0.5845
704 0.5877
705 0.594
706 0.5905
707 0.5836
708 0.5846
709 0.5797
710 0.5761
711 0.5786
712 0.571
713 0.5691
714 0.5706
715 0.5697
716 0.5679
717 0.5706
718 0.5702
719 0.5631
720 0.5636
721 0.5649
722 0.5654
723 0.565
724 0.5676
725 0.5664
726 0.5619
727 0.5637
728 0.5629
729 0.5528
730 0.5506
731 0.5611
732 0.56
733 0.5599
734 0.5602
735 0.5606
736 0.555
737 0.5536
738 0.5531
739 0.5409
740 0.5419
741 0.5391
742 0.5354
743 0.5437
744 0.5519
745 0.5465
746 0.5526
747 0.5507
748 0.5528
749 0.5499
750 0.5439
