# Top-of-atmosphere (TOA) lunar irradiance from Miller and Turner (2009) by 10 nm increments
# First column wavelength (nm), second column TOA irradiance# Phase angle = 71
# Units = mW/m^2-micrometer

300 0.02592
310 0.02587
320 0.03927
330 0.06395
340 0.05767
350 0.05332
360 0.07048
370 0.08511
380 0.07429
390 0.08796
400 0.127
410 0.1328
420 0.1384
430 0.1223
440 0.1495
450 0.1781
460 0.1834
470 0.1855
480 0.1984
490 0.1935
500 0.1918
510 0.1946
520 0.1865
530 0.2
540 0.1988
550 0.2085
560 0.1982
570 0.2058
580 0.2102
590 0.1976
600 0.2139
610 0.2118
620 0.2127
630 0.2145
640 0.2126
650 0.207
660 0.209
670 0.2107
680 0.2076
690 0.2094
700 0.2091
710 0.2034
720 0.1992
730 0.1948
740 0.1919
750 0.1928
