# Top-of-atmosphere (TOA) lunar irradiance from Miller and Turner (2009) by 10 nm increments
# First column wavelength (nm), second column TOA irradiance# Phase angle = 121
# Units = mW/m^2-micrometer

300 0.1396
310 0.1391
320 0.2109
330 0.343
340 0.3089
350 0.2852
360 0.3765
370 0.454
380 0.3957
390 0.4679
400 0.6744
410 0.7043
420 0.7331
430 0.6472
440 0.79
450 0.9398
460 0.9661
470 0.976
480 1.042
490 1.015
500 1.005
510 1.019
520 0.9746
530 1.044
540 1.036
550 1.085
560 1.03
570 1.068
580 1.09
590 1.023
600 1.105
610 1.093
620 1.096
630 1.104
640 1.093
650 1.063
660 1.071
670 1.079
680 1.061
690 1.069
700 1.066
710 1.036
720 1.013
730 0.9893
740 0.9734
750 0.9767
