# Top-of-atmosphere (TOA) lunar irradiance from Miller and Turner (2009) by 10 nm increments
# First column wavelength (nm), second column TOA irradiance# Phase angle = 120
# Units = mW/m^2-micrometer

300 0.1363
310 0.1359
320 0.2059
330 0.3349
340 0.3016
350 0.2785
360 0.3676
370 0.4433
380 0.3865
390 0.4569
400 0.6586
410 0.6878
420 0.7159
430 0.632
440 0.7716
450 0.9179
460 0.9436
470 0.9532
480 1.018
490 0.9917
500 0.9818
510 0.9948
520 0.9519
530 1.019
540 1.012
550 1.06
560 1.006
570 1.044
580 1.064
590 0.9993
600 1.08
610 1.068
620 1.071
630 1.079
640 1.068
650 1.038
660 1.047
670 1.054
680 1.037
690 1.044
700 1.042
710 1.012
720 0.9894
730 0.9665
740 0.951
750 0.9542
