# Top-of-atmosphere (TOA) lunar irradiance from Miller and Turner (2009) by 10 nm increments
# First column wavelength (nm), second column TOA irradiance# Phase angle = 81
# Units = mW/m^2-micrometer

300 0.04046
310 0.04036
320 0.06123
330 0.09966
340 0.08982
350 0.083
360 0.1097
370 0.1323
380 0.1155
390 0.1366
400 0.1971
410 0.206
420 0.2146
430 0.1896
440 0.2316
450 0.2758
460 0.2837
470 0.2868
480 0.3066
490 0.2989
500 0.2962
510 0.3003
520 0.2876
530 0.3082
540 0.3062
550 0.321
560 0.305
570 0.3165
580 0.3231
590 0.3036
600 0.3283
610 0.325
620 0.3262
630 0.3289
640 0.3257
650 0.3169
660 0.3198
670 0.3222
680 0.3173
690 0.3198
700 0.3193
710 0.3103
720 0.3038
730 0.297
740 0.2924
750 0.2937
