# Top-of-atmosphere (TOA) lunar irradiance from Miller and Turner (2009)
# First column wavelength (nm), second column TOA irradiance# Lunar phase angle: 159
# Irradiance units: mW/m^2-micrometer

300 0.3631
301 0.2699
302 0.3398
303 0.3247
304 0.4592
305 0.4276
306 0.4364
307 0.4036
308 0.4693
309 0.4733
310 0.3613
311 0.48
312 0.5693
313 0.4944
314 0.5363
315 0.4927
316 0.5072
317 0.4635
318 0.6454
319 0.4963
320 0.5469
321 0.6755
322 0.5358
323 0.5614
324 0.5235
325 0.6273
326 0.7025
327 0.8008
328 0.7774
329 0.7226
330 0.8881
331 0.8198
332 0.8117
333 0.7875
334 0.7544
335 0.8068
336 0.8223
337 0.6509
338 0.7145
339 0.7669
340 0.7986
341 0.8819
342 0.7732
343 0.8602
344 0.8646
345 0.6236
346 0.851
347 0.7897
348 0.7834
349 0.8168
350 0.7362
351 0.9728
352 0.868
353 0.7774
354 0.9381
355 0.9981
356 0.9358
357 0.8365
358 0.7597
359 0.5672
360 0.9703
361 0.9151
362 0.811
363 0.9271
364 0.8754
365 0.9447
366 1.084
367 1.154
368 1.113
369 0.9929
370 1.168
371 1.036
372 1.198
373 0.9896
374 0.8543
375 0.8716
376 1.048
377 1.028
378 1.239
379 1.33
380 1.017
381 1.191
382 1.082
383 0.7762
384 0.6468
385 0.938
386 0.987
387 0.9995
388 0.9763
389 0.9389
390 1.2
391 1.228
392 1.43
393 1.081
394 0.471
395 1.09
396 1.411
397 0.7497
398 0.8429
399 1.606
400 1.728
401 1.736
402 1.888
403 1.918
404 1.878
405 1.835
406 1.784
407 1.737
408 1.762
409 1.786
410 1.801
411 1.669
412 1.737
413 1.805
414 1.874
415 1.881
416 1.885
417 1.91
418 1.872
419 1.871
420 1.872
421 1.918
422 1.955
423 1.888
424 1.865
425 1.911
426 1.897
427 1.889
428 1.819
429 1.818
430 1.65
431 1.378
432 1.707
433 1.887
434 1.863
435 1.824
436 1.961
437 2.071
438 2.008
439 1.93
440 2.011
441 2.099
442 2.18
443 2.247
444 2.254
445 2.256
446 2.219
447 2.205
448 2.335
449 2.365
450 2.389
451 2.497
452 2.51
453 2.393
454 2.332
455 2.44
456 2.458
457 2.526
458 2.528
459 2.466
460 2.452
461 2.492
462 2.532
463 2.557
464 2.53
465 2.475
466 2.476
467 2.458
468 2.446
469 2.491
470 2.473
471 2.439
472 2.5
473 2.579
474 2.546
475 2.603
476 2.603
477 2.569
478 2.638
479 2.638
480 2.638
481 2.626
482 2.647
483 2.624
484 2.592
485 2.562
486 2.333
487 2.204
488 2.387
489 2.463
490 2.565
491 2.604
492 2.514
493 2.51
494 2.541
495 2.604
496 2.606
497 2.598
498 2.579
499 2.538
500 2.536
501 2.497
502 2.449
503 2.502
504 2.551
505 2.543
506 2.638
507 2.68
508 2.643
509 2.605
510 2.566
511 2.539
512 2.591
513 2.565
514 2.504
515 2.474
516 2.513
517 2.342
518 2.203
519 2.288
520 2.451
521 2.498
522 2.546
523 2.496
524 2.542
525 2.621
526 2.594
527 2.377
528 2.435
529 2.593
530 2.621
531 2.66
532 2.667
533 2.639
534 2.604
535 2.614
536 2.693
537 2.634
538 2.636
539 2.655
540 2.597
541 2.547
542 2.605
543 2.637
544 2.661
545 2.687
546 2.695
547 2.697
548 2.668
549 2.683
550 2.716
551 2.705
552 2.716
553 2.714
554 2.708
555 2.737
556 2.725
557 2.671
558 2.641
559 2.608
560 2.575
561 2.64
562 2.666
563 2.637
564 2.652
565 2.661
566 2.639
567 2.642
568 2.691
569 2.672
570 2.666
571 2.642
572 2.648
573 2.753
574 2.768
575 2.746
576 2.708
577 2.721
578 2.728
579 2.693
580 2.715
581 2.742
582 2.757
583 2.786
584 2.791
585 2.772
586 2.724
587 2.721
588 2.76
589 2.656
590 2.545
591 2.67
592 2.735
593 2.743
594 2.741
595 2.752
596 2.742
597 2.763
598 2.761
599 2.738
600 2.746
601 2.731
602 2.701
603 2.715
604 2.767
605 2.779
606 2.766
607 2.758
608 2.749
609 2.725
610 2.712
611 2.715
612 2.722
613 2.711
614 2.679
615 2.679
616 2.66
617 2.612
618 2.655
619 2.697
620 2.716
621 2.742
622 2.726
623 2.711
624 2.698
625 2.675
626 2.668
627 2.722
628 2.758
629 2.761
630 2.731
631 2.72
632 2.683
633 2.719
634 2.706
635 2.717
636 2.718
637 2.712
638 2.752
639 2.752
640 2.699
641 2.68
642 2.67
643 2.701
644 2.693
645 2.699
646 2.678
647 2.683
648 2.704
649 2.698
650 2.62
651 2.714
652 2.73
653 2.692
654 2.672
655 2.631
656 2.46
657 2.262
658 2.504
659 2.627
660 2.637
661 2.662
662 2.679
663 2.671
664 2.64
665 2.649
666 2.657
667 2.644
668 2.638
669 2.656
670 2.651
671 2.642
672 2.631
673 2.625
674 2.621
675 2.617
676 2.614
677 2.611
678 2.609
679 2.607
680 2.605
681 2.603
682 2.601
683 2.6
684 2.6
685 2.599
686 2.599
687 2.599
688 2.599
689 2.605
690 2.619
691 2.625
692 2.612
693 2.604
694 2.609
695 2.596
696 2.594
697 2.603
698 2.569
699 2.601
700 2.609
701 2.574
702 2.558
703 2.57
704 2.583
705 2.611
706 2.595
707 2.564
708 2.568
709 2.546
710 2.53
711 2.54
712 2.506
713 2.497
714 2.504
715 2.499
716 2.491
717 2.502
718 2.5
719 2.468
720 2.47
721 2.475
722 2.477
723 2.475
724 2.486
725 2.481
726 2.46
727 2.468
728 2.464
729 2.419
730 2.409
731 2.454
732 2.449
733 2.448
734 2.449
735 2.451
736 2.426
737 2.419
738 2.417
739 2.363
740 2.367
741 2.354
742 2.337
743 2.373
744 2.409
745 2.385
746 2.411
747 2.402
748 2.411
749 2.398
750 2.371
