# Top-of-atmosphere (TOA) lunar irradiance from Miller and Turner (2009) by 10 nm increments
# First column wavelength (nm), second column TOA irradiance# Phase angle = 171
# Units = mW/m^2-micrometer

300 0.5
310 0.4972
320 0.7519
330 1.22
340 1.096
350 1.01
360 1.33
370 1.6
380 1.392
390 1.642
400 2.361
410 2.46
420 2.555
430 2.25
440 2.74
450 3.253
460 3.336
470 3.362
480 3.583
490 3.482
500 3.439
510 3.477
520 3.319
530 3.546
540 3.512
550 3.67
560 3.476
570 3.597
580 3.66
590 3.429
600 3.696
610 3.647
620 3.65
630 3.668
640 3.622
650 3.513
660 3.534
670 3.549
680 3.484
690 3.501
700 3.485
710 3.376
720 3.294
730 3.211
740 3.152
750 3.155
