# Top-of-atmosphere (TOA) lunar irradiance from Miller and Turner (2009)
# First column wavelength (nm), second column TOA irradiance# Lunar phase angle: 170
# Irradiance units: mW/m^2-micrometer

300 0.4864
301 0.3616
302 0.4553
303 0.4349
304 0.615
305 0.5726
306 0.5845
307 0.5405
308 0.6285
309 0.6337
310 0.4838
311 0.6426
312 0.7622
313 0.6618
314 0.7178
315 0.6594
316 0.6788
317 0.6203
318 0.8636
319 0.6641
320 0.7317
321 0.9037
322 0.7168
323 0.751
324 0.7002
325 0.839
326 0.9395
327 1.071
328 1.039
329 0.9662
330 1.187
331 1.096
332 1.085
333 1.053
334 1.008
335 1.078
336 1.099
337 0.8698
338 0.9548
339 1.025
340 1.067
341 1.178
342 1.033
343 1.149
344 1.155
345 0.8329
346 1.137
347 1.055
348 1.046
349 1.091
350 0.9829
351 1.299
352 1.159
353 1.038
354 1.252
355 1.332
356 1.249
357 1.116
358 1.014
359 0.7568
360 1.295
361 1.221
362 1.082
363 1.237
364 1.168
365 1.26
366 1.446
367 1.539
368 1.484
369 1.324
370 1.558
371 1.381
372 1.597
373 1.319
374 1.139
375 1.162
376 1.396
377 1.37
378 1.651
379 1.772
380 1.355
381 1.586
382 1.442
383 1.034
384 0.8616
385 1.249
386 1.315
387 1.331
388 1.3
389 1.25
390 1.598
391 1.635
392 1.904
393 1.44
394 0.627
395 1.451
396 1.877
397 0.9978
398 1.122
399 2.137
400 2.299
401 2.309
402 2.512
403 2.551
404 2.498
405 2.441
406 2.373
407 2.31
408 2.343
409 2.375
410 2.395
411 2.219
412 2.309
413 2.4
414 2.491
415 2.5
416 2.506
417 2.538
418 2.487
419 2.486
420 2.488
421 2.548
422 2.597
423 2.508
424 2.478
425 2.538
426 2.52
427 2.509
428 2.416
429 2.414
430 2.191
431 1.829
432 2.267
433 2.505
434 2.473
435 2.421
436 2.603
437 2.749
438 2.664
439 2.562
440 2.669
441 2.786
442 2.892
443 2.981
444 2.99
445 2.993
446 2.943
447 2.924
448 3.097
449 3.136
450 3.168
451 3.311
452 3.327
453 3.172
454 3.092
455 3.235
456 3.258
457 3.347
458 3.35
459 3.268
460 3.249
461 3.301
462 3.355
463 3.388
464 3.351
465 3.278
466 3.28
467 3.255
468 3.239
469 3.298
470 3.275
471 3.229
472 3.31
473 3.414
474 3.371
475 3.446
476 3.446
477 3.4
478 3.491
479 3.491
480 3.49
481 3.475
482 3.502
483 3.472
484 3.429
485 3.389
486 3.085
487 2.916
488 3.157
489 3.257
490 3.392
491 3.443
492 3.324
493 3.318
494 3.359
495 3.442
496 3.445
497 3.434
498 3.409
499 3.354
500 3.351
501 3.299
502 3.235
503 3.306
504 3.37
505 3.359
506 3.484
507 3.54
508 3.49
509 3.44
510 3.388
511 3.352
512 3.421
513 3.386
514 3.306
515 3.266
516 3.317
517 3.091
518 2.908
519 3.02
520 3.235
521 3.296
522 3.359
523 3.294
524 3.354
525 3.458
526 3.422
527 3.135
528 3.211
529 3.42
530 3.456
531 3.508
532 3.517
533 3.48
534 3.433
535 3.446
536 3.55
537 3.472
538 3.474
539 3.499
540 3.423
541 3.357
542 3.432
543 3.474
544 3.506
545 3.539
546 3.55
547 3.553
548 3.513
549 3.533
550 3.577
551 3.561
552 3.576
553 3.573
554 3.565
555 3.603
556 3.588
557 3.516
558 3.475
559 3.433
560 3.389
561 3.473
562 3.507
563 3.469
564 3.489
565 3.5
566 3.471
567 3.476
568 3.539
569 3.513
570 3.506
571 3.474
572 3.482
573 3.619
574 3.639
575 3.61
576 3.559
577 3.576
578 3.585
579 3.539
580 3.568
581 3.603
582 3.622
583 3.661
584 3.666
585 3.642
586 3.579
587 3.574
588 3.626
589 3.489
590 3.343
591 3.506
592 3.591
593 3.602
594 3.599
595 3.613
596 3.599
597 3.626
598 3.624
599 3.593
600 3.604
601 3.584
602 3.544
603 3.562
604 3.63
605 3.646
606 3.628
607 3.617
608 3.605
609 3.574
610 3.557
611 3.561
612 3.569
613 3.555
614 3.513
615 3.512
616 3.487
617 3.424
618 3.48
619 3.535
620 3.559
621 3.594
622 3.571
623 3.552
624 3.534
625 3.505
626 3.494
627 3.566
628 3.612
629 3.616
630 3.577
631 3.562
632 3.514
633 3.56
634 3.542
635 3.557
636 3.558
637 3.55
638 3.602
639 3.602
640 3.532
641 3.507
642 3.494
643 3.534
644 3.524
645 3.531
646 3.503
647 3.509
648 3.536
649 3.529
650 3.426
651 3.549
652 3.57
653 3.52
654 3.493
655 3.44
656 3.215
657 2.956
658 3.273
659 3.433
660 3.447
661 3.478
662 3.5
663 3.49
664 3.45
665 3.461
666 3.471
667 3.453
668 3.446
669 3.469
670 3.462
671 3.451
672 3.436
673 3.427
674 3.422
675 3.417
676 3.413
677 3.409
678 3.405
679 3.402
680 3.399
681 3.397
682 3.395
683 3.393
684 3.392
685 3.391
686 3.391
687 3.39
688 3.391
689 3.397
690 3.416
691 3.423
692 3.406
693 3.395
694 3.402
695 3.384
696 3.382
697 3.393
698 3.348
699 3.39
700 3.4
701 3.355
702 3.334
703 3.349
704 3.366
705 3.401
706 3.38
707 3.34
708 3.345
709 3.316
710 3.294
711 3.308
712 3.264
713 3.252
714 3.26
715 3.254
716 3.243
717 3.257
718 3.254
719 3.213
720 3.215
721 3.222
722 3.224
723 3.22
724 3.235
725 3.227
726 3.201
727 3.21
728 3.205
729 3.146
730 3.133
731 3.192
732 3.185
733 3.184
734 3.185
735 3.186
736 3.153
737 3.145
738 3.141
739 3.071
740 3.076
741 3.06
742 3.037
743 3.084
744 3.13
745 3.098
746 3.132
747 3.121
748 3.132
749 3.114
750 3.08
