# Top-of-atmosphere (TOA) lunar irradiance from Miller and Turner (2009) by 10 nm increments
# First column wavelength (nm), second column TOA irradiance# Phase angle = 112
# Units = mW/m^2-micrometer

300 0.111
310 0.1107
320 0.1678
330 0.2729
340 0.2458
350 0.227
360 0.2996
370 0.3613
380 0.315
390 0.3725
400 0.537
410 0.5608
420 0.5838
430 0.5154
440 0.6293
450 0.7487
460 0.7697
470 0.7776
480 0.8306
490 0.8092
500 0.8012
510 0.8119
520 0.777
530 0.8321
540 0.826
550 0.8653
560 0.8216
570 0.8521
580 0.8691
590 0.8161
600 0.882
610 0.8724
620 0.875
630 0.8815
640 0.8725
650 0.8482
660 0.8554
670 0.8612
680 0.8475
690 0.8537
700 0.8516
710 0.8271
720 0.809
730 0.7904
740 0.7777
750 0.7804
