# Top-of-atmosphere (TOA) lunar irradiance from Miller and Turner (2009) by 10 nm increments
# First column wavelength (nm), second column TOA irradiance# Phase angle = 92
# Units = mW/m^2-micrometer

300 0.06106
310 0.06088
320 0.09232
330 0.1502
340 0.1353
350 0.125
360 0.1651
370 0.1991
380 0.1737
390 0.2054
400 0.2962
410 0.3094
420 0.3222
430 0.2845
440 0.3475
450 0.4136
460 0.4253
470 0.4298
480 0.4592
490 0.4475
500 0.4432
510 0.4493
520 0.4301
530 0.4607
540 0.4575
550 0.4794
560 0.4553
570 0.4723
580 0.4819
590 0.4527
600 0.4893
610 0.4842
620 0.4857
630 0.4895
640 0.4846
650 0.4713
660 0.4754
670 0.4788
680 0.4713
690 0.4749
700 0.4739
710 0.4604
720 0.4504
730 0.4402
740 0.4333
750 0.4349
