# Top-of-atmosphere (TOA) lunar irradiance from Miller and Turner (2009)
# First column wavelength (nm), second column TOA irradiance# Lunar phase angle: 77
# Irradiance units: mW/m^2-micrometer

300 0.034
301 0.02528
302 0.03184
303 0.03042
304 0.04303
305 0.04008
306 0.04093
307 0.03786
308 0.04403
309 0.04442
310 0.03392
311 0.04507
312 0.05347
313 0.04644
314 0.05039
315 0.04631
316 0.04769
317 0.04359
318 0.06071
319 0.04669
320 0.05147
321 0.06359
322 0.05045
323 0.05288
324 0.04932
325 0.05911
326 0.06622
327 0.0755
328 0.07331
329 0.06816
330 0.08379
331 0.07737
332 0.07662
333 0.07436
334 0.07125
335 0.07622
336 0.07771
337 0.06152
338 0.06755
339 0.07252
340 0.07554
341 0.08344
342 0.07318
343 0.08143
344 0.08186
345 0.05907
346 0.08062
347 0.07484
348 0.07426
349 0.07744
350 0.06982
351 0.09228
352 0.08236
353 0.07378
354 0.08906
355 0.09478
356 0.08888
357 0.07947
358 0.07219
359 0.05391
360 0.09225
361 0.08703
362 0.07715
363 0.08822
364 0.08332
365 0.08993
366 0.1032
367 0.1099
368 0.106
369 0.09462
370 0.1114
371 0.09875
372 0.1142
373 0.0944
374 0.08152
375 0.08319
376 0.1
377 0.09817
378 0.1183
379 0.1271
380 0.09718
381 0.1138
382 0.1035
383 0.07424
384 0.06188
385 0.08976
386 0.09447
387 0.09569
388 0.09349
389 0.08994
390 0.115
391 0.1177
392 0.1371
393 0.1037
394 0.04517
395 0.1046
396 0.1353
397 0.07196
398 0.08092
399 0.1543
400 0.166
401 0.1668
402 0.1815
403 0.1843
404 0.1806
405 0.1765
406 0.1716
407 0.1672
408 0.1696
409 0.172
410 0.1735
411 0.1607
412 0.1673
413 0.174
414 0.1806
415 0.1814
416 0.1818
417 0.1842
418 0.1806
419 0.1806
420 0.1808
421 0.1852
422 0.1889
423 0.1824
424 0.1803
425 0.1847
426 0.1835
427 0.1827
428 0.176
429 0.176
430 0.1597
431 0.1334
432 0.1654
433 0.1828
434 0.1805
435 0.1768
436 0.1901
437 0.2008
438 0.1947
439 0.1873
440 0.1952
441 0.2038
442 0.2116
443 0.2182
444 0.2189
445 0.2192
446 0.2157
447 0.2144
448 0.2271
449 0.23
450 0.2324
451 0.243
452 0.2443
453 0.233
454 0.2272
455 0.2377
456 0.2395
457 0.2462
458 0.2464
459 0.2405
460 0.2392
461 0.2431
462 0.2471
463 0.2496
464 0.247
465 0.2417
466 0.2419
467 0.2402
468 0.2391
469 0.2435
470 0.2419
471 0.2386
472 0.2446
473 0.2524
474 0.2493
475 0.2549
476 0.255
477 0.2517
478 0.2585
479 0.2586
480 0.2586
481 0.2575
482 0.2597
483 0.2575
484 0.2544
485 0.2515
486 0.229
487 0.2165
488 0.2346
489 0.2421
490 0.2522
491 0.256
492 0.2472
493 0.2469
494 0.25
495 0.2563
496 0.2566
497 0.2559
498 0.2541
499 0.2501
500 0.2499
501 0.2461
502 0.2414
503 0.2468
504 0.2517
505 0.2509
506 0.2603
507 0.2646
508 0.261
509 0.2573
510 0.2535
511 0.2509
512 0.2561
513 0.2536
514 0.2477
515 0.2448
516 0.2487
517 0.2318
518 0.2181
519 0.2266
520 0.2428
521 0.2475
522 0.2523
523 0.2475
524 0.2521
525 0.26
526 0.2574
527 0.2358
528 0.2417
529 0.2575
530 0.2603
531 0.2642
532 0.265
533 0.2623
534 0.2589
535 0.2599
536 0.2679
537 0.2621
538 0.2623
539 0.2643
540 0.2586
541 0.2537
542 0.2595
543 0.2627
544 0.2652
545 0.2678
546 0.2687
547 0.269
548 0.2661
549 0.2677
550 0.2711
551 0.27
552 0.2712
553 0.2711
554 0.2705
555 0.2736
556 0.2725
557 0.2671
558 0.2641
559 0.2609
560 0.2577
561 0.2642
562 0.2669
563 0.2641
564 0.2656
565 0.2666
566 0.2645
567 0.2649
568 0.2698
569 0.268
570 0.2675
571 0.2651
572 0.2658
573 0.2764
574 0.278
575 0.2759
576 0.2721
577 0.2735
578 0.2742
579 0.2708
580 0.2731
581 0.2758
582 0.2774
583 0.2805
584 0.281
585 0.2792
586 0.2745
587 0.2742
588 0.2782
589 0.2678
590 0.2567
591 0.2693
592 0.276
593 0.2768
594 0.2767
595 0.2779
596 0.2769
597 0.2791
598 0.279
599 0.2767
600 0.2776
601 0.2762
602 0.2732
603 0.2747
604 0.28
605 0.2814
606 0.2801
607 0.2793
608 0.2785
609 0.2761
610 0.2749
611 0.2753
612 0.276
613 0.275
614 0.2718
615 0.2719
616 0.27
617 0.2653
618 0.2697
619 0.274
620 0.276
621 0.2787
622 0.2771
623 0.2757
624 0.2744
625 0.2722
626 0.2715
627 0.2771
628 0.2808
629 0.2812
630 0.2783
631 0.2772
632 0.2735
633 0.2772
634 0.2759
635 0.2771
636 0.2773
637 0.2768
638 0.2809
639 0.281
640 0.2757
641 0.2738
642 0.2729
643 0.2761
644 0.2754
645 0.276
646 0.2739
647 0.2745
648 0.2767
649 0.2762
650 0.2683
651 0.278
652 0.2797
653 0.2759
654 0.2739
655 0.2698
656 0.2522
657 0.232
658 0.257
659 0.2696
660 0.2708
661 0.2733
662 0.2751
663 0.2744
664 0.2714
665 0.2723
666 0.2732
667 0.2719
668 0.2714
669 0.2733
670 0.2729
671 0.272
672 0.271
673 0.2703
674 0.27
675 0.2697
676 0.2695
677 0.2693
678 0.2691
679 0.2689
680 0.2688
681 0.2687
682 0.2686
683 0.2685
684 0.2685
685 0.2686
686 0.2686
687 0.2687
688 0.2688
689 0.2694
690 0.271
691 0.2716
692 0.2704
693 0.2696
694 0.2702
695 0.2689
696 0.2688
697 0.2698
698 0.2663
699 0.2697
700 0.2706
701 0.2671
702 0.2655
703 0.2668
704 0.2682
705 0.2711
706 0.2695
707 0.2664
708 0.2669
709 0.2647
710 0.263
711 0.2642
712 0.2607
713 0.2599
714 0.2606
715 0.2602
716 0.2594
717 0.2607
718 0.2605
719 0.2573
720 0.2575
721 0.2581
722 0.2584
723 0.2582
724 0.2595
725 0.2589
726 0.2569
727 0.2577
728 0.2574
729 0.2528
730 0.2518
731 0.2566
732 0.2561
733 0.2561
734 0.2563
735 0.2565
736 0.2539
737 0.2533
738 0.2531
739 0.2475
740 0.248
741 0.2468
742 0.2451
743 0.2489
744 0.2527
745 0.2502
746 0.253
747 0.2522
748 0.2532
749 0.2518
750 0.2491
