# Top-of-atmosphere (TOA) lunar irradiance from Miller and Turner (2009)
# First column wavelength (nm), second column TOA irradiance# Lunar phase angle: 80
# Irradiance units: mW/m^2-micrometer

300 0.03893
301 0.02895
302 0.03646
303 0.03484
304 0.04928
305 0.0459
306 0.04686
307 0.04335
308 0.05042
309 0.05086
310 0.03884
311 0.0516
312 0.06123
313 0.05318
314 0.0577
315 0.05302
316 0.0546
317 0.04991
318 0.0695
319 0.05346
320 0.05892
321 0.0728
322 0.05776
323 0.06053
324 0.05646
325 0.06767
326 0.0758
327 0.08642
328 0.08391
329 0.07803
330 0.09591
331 0.08856
332 0.08771
333 0.08511
334 0.08155
335 0.08724
336 0.08894
337 0.07041
338 0.07731
339 0.083
340 0.08645
341 0.0955
342 0.08375
343 0.09319
344 0.09368
345 0.0676
346 0.09226
347 0.08564
348 0.08497
349 0.08861
350 0.07989
351 0.1056
352 0.09424
353 0.08442
354 0.1019
355 0.1084
356 0.1017
357 0.09093
358 0.0826
359 0.06168
360 0.1055
361 0.09957
362 0.08826
363 0.1009
364 0.09532
365 0.1029
366 0.1181
367 0.1258
368 0.1213
369 0.1082
370 0.1274
371 0.113
372 0.1307
373 0.108
374 0.09324
375 0.09515
376 0.1144
377 0.1123
378 0.1354
379 0.1453
380 0.1111
381 0.1302
382 0.1183
383 0.0849
384 0.07076
385 0.1026
386 0.108
387 0.1094
388 0.1069
389 0.1028
390 0.1315
391 0.1346
392 0.1568
393 0.1186
394 0.05165
395 0.1196
396 0.1548
397 0.08228
398 0.09252
399 0.1764
400 0.1897
401 0.1907
402 0.2075
403 0.2107
404 0.2064
405 0.2018
406 0.1962
407 0.1911
408 0.1938
409 0.1966
410 0.1983
411 0.1838
412 0.1913
413 0.1988
414 0.2065
415 0.2073
416 0.2079
417 0.2106
418 0.2064
419 0.2064
420 0.2066
421 0.2117
422 0.2158
423 0.2085
424 0.206
425 0.2111
426 0.2097
427 0.2088
428 0.2011
429 0.2011
430 0.1825
431 0.1524
432 0.189
433 0.2089
434 0.2062
435 0.202
436 0.2172
437 0.2295
438 0.2225
439 0.214
440 0.223
441 0.2328
442 0.2418
443 0.2493
444 0.2501
445 0.2504
446 0.2464
447 0.2449
448 0.2594
449 0.2627
450 0.2655
451 0.2776
452 0.2791
453 0.2661
454 0.2595
455 0.2715
456 0.2735
457 0.2812
458 0.2815
459 0.2747
460 0.2732
461 0.2776
462 0.2822
463 0.2851
464 0.2821
465 0.276
466 0.2763
467 0.2743
468 0.273
469 0.2781
470 0.2762
471 0.2724
472 0.2793
473 0.2882
474 0.2846
475 0.2911
476 0.2911
477 0.2874
478 0.2951
479 0.2952
480 0.2952
481 0.294
482 0.2965
483 0.294
484 0.2904
485 0.2872
486 0.2615
487 0.2472
488 0.2678
489 0.2763
490 0.2879
491 0.2922
492 0.2822
493 0.2818
494 0.2854
495 0.2925
496 0.2929
497 0.292
498 0.29
499 0.2854
500 0.2852
501 0.2809
502 0.2756
503 0.2817
504 0.2872
505 0.2863
506 0.2971
507 0.302
508 0.2978
509 0.2937
510 0.2893
511 0.2863
512 0.2922
513 0.2893
514 0.2826
515 0.2793
516 0.2838
517 0.2645
518 0.2489
519 0.2586
520 0.277
521 0.2824
522 0.2879
523 0.2823
524 0.2876
525 0.2966
526 0.2936
527 0.269
528 0.2757
529 0.2937
530 0.2969
531 0.3014
532 0.3023
533 0.2992
534 0.2953
535 0.2965
536 0.3056
537 0.2989
538 0.2992
539 0.3015
540 0.2949
541 0.2893
542 0.2959
543 0.2997
544 0.3025
545 0.3054
546 0.3065
547 0.3068
548 0.3035
549 0.3053
550 0.3092
551 0.3079
552 0.3093
553 0.3091
554 0.3085
555 0.3119
556 0.3107
557 0.3046
558 0.3012
559 0.2975
560 0.2938
561 0.3013
562 0.3043
563 0.3011
564 0.3029
565 0.3039
566 0.3016
567 0.302
568 0.3076
569 0.3055
570 0.305
571 0.3022
572 0.303
573 0.3151
574 0.3169
575 0.3145
576 0.3101
577 0.3117
578 0.3126
579 0.3086
580 0.3113
581 0.3144
582 0.3162
583 0.3197
584 0.3203
585 0.3182
586 0.3128
587 0.3125
588 0.3171
589 0.3052
590 0.2925
591 0.3069
592 0.3145
593 0.3155
594 0.3153
595 0.3166
596 0.3155
597 0.318
598 0.3179
599 0.3153
600 0.3164
601 0.3147
602 0.3113
603 0.313
604 0.319
605 0.3206
606 0.3191
607 0.3182
608 0.3172
609 0.3146
610 0.3132
611 0.3136
612 0.3144
613 0.3133
614 0.3097
615 0.3097
616 0.3076
617 0.3022
618 0.3072
619 0.3121
620 0.3143
621 0.3175
622 0.3156
623 0.314
624 0.3125
625 0.31
626 0.3092
627 0.3156
628 0.3198
629 0.3203
630 0.3169
631 0.3157
632 0.3115
633 0.3157
634 0.3142
635 0.3156
636 0.3158
637 0.3152
638 0.3199
639 0.32
640 0.3139
641 0.3117
642 0.3107
643 0.3143
644 0.3136
645 0.3143
646 0.3119
647 0.3126
648 0.3151
649 0.3144
650 0.3054
651 0.3165
652 0.3184
653 0.3141
654 0.3118
655 0.3071
656 0.2871
657 0.2641
658 0.2925
659 0.3069
660 0.3082
661 0.3111
662 0.3132
663 0.3123
664 0.3089
665 0.3099
666 0.311
667 0.3095
668 0.3089
669 0.3111
670 0.3105
671 0.3096
672 0.3084
673 0.3077
674 0.3073
675 0.307
676 0.3067
677 0.3064
678 0.3062
679 0.306
680 0.3058
681 0.3057
682 0.3056
683 0.3056
684 0.3055
685 0.3056
686 0.3056
687 0.3057
688 0.3058
689 0.3065
690 0.3083
691 0.309
692 0.3076
693 0.3067
694 0.3074
695 0.3059
696 0.3058
697 0.3069
698 0.3029
699 0.3068
700 0.3078
701 0.3038
702 0.302
703 0.3034
704 0.3051
705 0.3084
706 0.3066
707 0.303
708 0.3035
709 0.301
710 0.2991
711 0.3005
712 0.2965
713 0.2956
714 0.2964
715 0.2959
716 0.295
717 0.2964
718 0.2962
719 0.2925
720 0.2928
721 0.2935
722 0.2938
723 0.2936
724 0.295
725 0.2944
726 0.2921
727 0.293
728 0.2926
729 0.2874
730 0.2863
731 0.2917
732 0.2912
733 0.2911
734 0.2913
735 0.2916
736 0.2886
737 0.2879
738 0.2877
739 0.2814
740 0.2819
741 0.2805
742 0.2785
743 0.2829
744 0.2872
745 0.2844
746 0.2876
747 0.2866
748 0.2877
749 0.2862
750 0.2831
