# Top-of-atmosphere (TOA) lunar irradiance from Miller and Turner (2009) by 10 nm increments
# First column wavelength (nm), second column TOA irradiance# Phase angle = 167
# Units = mW/m^2-micrometer

300 0.4491
310 0.4467
320 0.6758
330 1.097
340 0.9857
350 0.9083
360 1.197
370 1.44
380 1.253
390 1.478
400 2.126
410 2.216
420 2.302
430 2.028
440 2.47
450 2.933
460 3.009
470 3.033
480 3.233
490 3.143
500 3.105
510 3.14
520 2.999
530 3.204
540 3.174
550 3.318
560 3.144
570 3.254
580 3.311
590 3.103
600 3.346
610 3.303
620 3.305
630 3.323
640 3.282
650 3.184
660 3.204
670 3.219
680 3.161
690 3.177
700 3.163
710 3.065
720 2.992
730 2.916
740 2.864
750 2.867
