# Top-of-atmosphere (TOA) lunar irradiance from Miller and Turner (2009)
# First column wavelength (nm), second column TOA irradiance# Lunar phase angle: 165
# Irradiance units: mW/m^2-micrometer

300 0.4258
301 0.3165
302 0.3985
303 0.3807
304 0.5384
305 0.5013
306 0.5117
307 0.4732
308 0.5502
309 0.5549
310 0.4236
311 0.5626
312 0.6674
313 0.5795
314 0.6286
315 0.5775
316 0.5945
317 0.5432
318 0.7563
319 0.5816
320 0.6409
321 0.7915
322 0.6278
323 0.6578
324 0.6134
325 0.7349
326 0.823
327 0.9381
328 0.9106
329 0.8465
330 1.04
331 0.9603
332 0.9507
333 0.9224
334 0.8836
335 0.9449
336 0.9631
337 0.7622
338 0.8367
339 0.898
340 0.9351
341 1.033
342 0.9053
343 1.007
344 1.012
345 0.7301
346 0.9962
347 0.9245
348 0.9171
349 0.956
350 0.8617
351 1.139
352 1.016
353 0.9099
354 1.098
355 1.168
356 1.095
357 0.9788
358 0.889
359 0.6636
360 1.135
361 1.071
362 0.9488
363 1.085
364 1.024
365 1.105
366 1.268
367 1.35
368 1.302
369 1.161
370 1.366
371 1.211
372 1.401
373 1.157
374 0.9991
375 1.019
376 1.225
377 1.202
378 1.449
379 1.555
380 1.189
381 1.392
382 1.265
383 0.9074
384 0.7561
385 1.096
386 1.154
387 1.168
388 1.141
389 1.097
390 1.403
391 1.436
392 1.671
393 1.264
394 0.5504
395 1.274
396 1.648
397 0.876
398 0.9848
399 1.877
400 2.018
401 2.028
402 2.206
403 2.24
404 2.194
405 2.144
406 2.084
407 2.029
408 2.057
409 2.086
410 2.104
411 1.949
412 2.028
413 2.108
414 2.188
415 2.196
416 2.201
417 2.23
418 2.185
419 2.184
420 2.186
421 2.239
422 2.282
423 2.204
424 2.177
425 2.23
426 2.214
427 2.205
428 2.123
429 2.122
430 1.926
431 1.608
432 1.992
433 2.202
434 2.173
435 2.128
436 2.288
437 2.416
438 2.342
439 2.252
440 2.346
441 2.449
442 2.542
443 2.621
444 2.629
445 2.631
446 2.588
447 2.572
448 2.723
449 2.757
450 2.786
451 2.912
452 2.926
453 2.79
454 2.719
455 2.845
456 2.865
457 2.944
458 2.947
459 2.875
460 2.858
461 2.904
462 2.951
463 2.981
464 2.949
465 2.884
466 2.886
467 2.864
468 2.85
469 2.902
470 2.882
471 2.842
472 2.913
473 3.004
474 2.967
475 3.033
476 3.033
477 2.993
478 3.073
479 3.073
480 3.072
481 3.059
482 3.083
483 3.056
484 3.019
485 2.984
486 2.716
487 2.567
488 2.78
489 2.868
490 2.987
491 3.032
492 2.927
493 2.922
494 2.958
495 3.031
496 3.034
497 3.025
498 3.002
499 2.955
500 2.952
501 2.906
502 2.85
503 2.912
504 2.969
505 2.959
506 3.07
507 3.119
508 3.075
509 3.031
510 2.985
511 2.954
512 3.014
513 2.983
514 2.913
515 2.878
516 2.924
517 2.724
518 2.563
519 2.662
520 2.851
521 2.905
522 2.961
523 2.903
524 2.956
525 3.048
526 3.016
527 2.763
528 2.831
529 3.015
530 3.047
531 3.093
532 3.101
533 3.068
534 3.027
535 3.039
536 3.131
537 3.062
538 3.064
539 3.086
540 3.019
541 2.96
542 3.027
543 3.064
544 3.092
545 3.122
546 3.131
547 3.134
548 3.099
549 3.117
550 3.156
551 3.142
552 3.155
553 3.152
554 3.145
555 3.179
556 3.166
557 3.103
558 3.067
559 3.029
560 2.99
561 3.065
562 3.095
563 3.062
564 3.079
565 3.089
566 3.064
567 3.068
568 3.124
569 3.101
570 3.095
571 3.066
572 3.074
573 3.195
574 3.213
575 3.187
576 3.143
577 3.158
578 3.166
579 3.125
580 3.151
581 3.181
582 3.199
583 3.233
584 3.238
585 3.216
586 3.161
587 3.157
588 3.202
589 3.082
590 2.953
591 3.097
592 3.173
593 3.182
594 3.179
595 3.192
596 3.18
597 3.204
598 3.202
599 3.175
600 3.184
601 3.167
602 3.132
603 3.148
604 3.208
605 3.222
606 3.206
607 3.197
608 3.186
609 3.159
610 3.144
611 3.147
612 3.155
613 3.142
614 3.105
615 3.105
616 3.083
617 3.027
618 3.077
619 3.125
620 3.147
621 3.177
622 3.158
623 3.14
624 3.125
625 3.099
626 3.09
627 3.153
628 3.194
629 3.198
630 3.164
631 3.151
632 3.108
633 3.149
634 3.133
635 3.146
636 3.147
637 3.141
638 3.186
639 3.187
640 3.125
641 3.102
642 3.092
643 3.127
644 3.118
645 3.124
646 3.1
647 3.106
648 3.13
649 3.123
650 3.032
651 3.141
652 3.159
653 3.115
654 3.092
655 3.045
656 2.846
657 2.617
658 2.897
659 3.039
660 3.051
661 3.079
662 3.099
663 3.09
664 3.054
665 3.064
666 3.074
667 3.058
668 3.051
669 3.072
670 3.066
671 3.056
672 3.043
673 3.035
674 3.031
675 3.026
676 3.023
677 3.019
678 3.016
679 3.013
680 3.011
681 3.009
682 3.007
683 3.006
684 3.005
685 3.004
686 3.004
687 3.004
688 3.004
689 3.01
690 3.027
691 3.033
692 3.019
693 3.009
694 3.015
695 2.999
696 2.997
697 3.007
698 2.968
699 3.005
700 3.014
701 2.974
702 2.955
703 2.969
704 2.984
705 3.015
706 2.997
707 2.961
708 2.965
709 2.94
710 2.921
711 2.933
712 2.894
713 2.884
714 2.891
715 2.886
716 2.876
717 2.889
718 2.886
719 2.849
720 2.851
721 2.857
722 2.859
723 2.857
724 2.869
725 2.863
726 2.839
727 2.848
728 2.843
729 2.791
730 2.78
731 2.832
732 2.826
733 2.825
734 2.826
735 2.827
736 2.798
737 2.791
738 2.788
739 2.725
740 2.73
741 2.716
742 2.696
743 2.737
744 2.778
745 2.75
746 2.78
747 2.77
748 2.78
749 2.765
750 2.734
