# Top-of-atmosphere (TOA) lunar irradiance from Miller and Turner (2009)
# First column wavelength (nm), second column TOA irradiance# Lunar phase angle: 149
# Irradiance units: mW/m^2-micrometer

300 0.2795
301 0.2078
302 0.2616
303 0.25
304 0.3535
305 0.3292
306 0.336
307 0.3108
308 0.3614
309 0.3645
310 0.2783
311 0.3697
312 0.4386
313 0.3809
314 0.4131
315 0.3796
316 0.3908
317 0.3572
318 0.4973
319 0.3824
320 0.4215
321 0.5206
322 0.413
323 0.4328
324 0.4035
325 0.4836
326 0.5416
327 0.6174
328 0.5994
329 0.5572
330 0.6848
331 0.6322
332 0.626
333 0.6074
334 0.5819
335 0.6224
336 0.6344
337 0.5021
338 0.5512
339 0.5917
340 0.6162
341 0.6805
342 0.5967
343 0.6638
344 0.6672
345 0.4813
346 0.6569
347 0.6096
348 0.6048
349 0.6305
350 0.5684
351 0.7511
352 0.6702
353 0.6003
354 0.7244
355 0.7708
356 0.7227
357 0.6461
358 0.5868
359 0.4381
360 0.7496
361 0.707
362 0.6266
363 0.7164
364 0.6765
365 0.73
366 0.8379
367 0.8919
368 0.8602
369 0.7674
370 0.903
371 0.8006
372 0.9261
373 0.7651
374 0.6605
375 0.674
376 0.81
377 0.795
378 0.9582
379 1.029
380 0.7865
381 0.9209
382 0.8372
383 0.6005
384 0.5004
385 0.7257
386 0.7637
387 0.7734
388 0.7555
389 0.7266
390 0.9291
391 0.9507
392 1.107
393 0.8371
394 0.3646
395 0.8441
396 1.092
397 0.5805
398 0.6526
399 1.244
400 1.338
401 1.344
402 1.462
403 1.485
404 1.455
405 1.422
406 1.382
407 1.346
408 1.365
409 1.384
410 1.396
411 1.293
412 1.346
413 1.399
414 1.452
415 1.458
416 1.461
417 1.48
418 1.451
419 1.45
420 1.452
421 1.487
422 1.516
423 1.464
424 1.446
425 1.482
426 1.472
427 1.465
428 1.411
429 1.411
430 1.28
431 1.069
432 1.325
433 1.464
434 1.445
435 1.416
436 1.522
437 1.608
438 1.558
439 1.498
440 1.561
441 1.63
442 1.692
443 1.744
444 1.75
445 1.752
446 1.723
447 1.712
448 1.813
449 1.836
450 1.856
451 1.94
452 1.95
453 1.859
454 1.812
455 1.896
456 1.91
457 1.963
458 1.964
459 1.917
460 1.906
461 1.937
462 1.968
463 1.988
464 1.967
465 1.924
466 1.925
467 1.911
468 1.902
469 1.937
470 1.924
471 1.897
472 1.945
473 2.006
474 1.981
475 2.025
476 2.025
477 1.999
478 2.052
479 2.053
480 2.052
481 2.043
482 2.06
483 2.042
484 2.017
485 1.994
486 1.816
487 1.716
488 1.859
489 1.918
490 1.997
491 2.027
492 1.958
493 1.954
494 1.979
495 2.028
496 2.03
497 2.024
498 2.009
499 1.977
500 1.976
501 1.945
502 1.908
503 1.95
504 1.988
505 1.981
506 2.056
507 2.089
508 2.06
509 2.031
510 2
511 1.979
512 2.02
513 2
514 1.953
515 1.929
516 1.96
517 1.826
518 1.719
519 1.785
520 1.912
521 1.949
522 1.986
523 1.948
524 1.984
525 2.045
526 2.024
527 1.855
528 1.9
529 2.024
530 2.045
531 2.076
532 2.082
533 2.06
534 2.033
535 2.041
536 2.103
537 2.057
538 2.058
539 2.074
540 2.028
541 1.99
542 2.035
543 2.06
544 2.079
545 2.099
546 2.105
547 2.107
548 2.084
549 2.096
550 2.123
551 2.114
552 2.123
553 2.121
554 2.116
555 2.139
556 2.131
557 2.088
558 2.064
559 2.039
560 2.013
561 2.064
562 2.085
563 2.062
564 2.074
565 2.081
566 2.064
567 2.067
568 2.105
569 2.09
570 2.086
571 2.067
572 2.072
573 2.154
574 2.166
575 2.149
576 2.119
577 2.13
578 2.135
579 2.108
580 2.126
581 2.146
582 2.158
583 2.182
584 2.185
585 2.171
586 2.134
587 2.131
588 2.162
589 2.081
590 1.994
591 2.092
592 2.143
593 2.149
594 2.148
595 2.156
596 2.148
597 2.165
598 2.164
599 2.146
600 2.152
601 2.141
602 2.117
603 2.128
604 2.169
605 2.179
606 2.169
607 2.162
608 2.155
609 2.137
610 2.127
611 2.13
612 2.135
613 2.127
614 2.102
615 2.102
616 2.087
617 2.05
618 2.083
619 2.116
620 2.131
621 2.152
622 2.139
623 2.128
624 2.117
625 2.1
626 2.094
627 2.137
628 2.165
629 2.168
630 2.145
631 2.136
632 2.107
633 2.135
634 2.125
635 2.134
636 2.135
637 2.131
638 2.162
639 2.162
640 2.121
641 2.106
642 2.098
643 2.122
644 2.117
645 2.121
646 2.105
647 2.109
648 2.125
649 2.121
650 2.059
651 2.134
652 2.146
653 2.117
654 2.101
655 2.069
656 1.934
657 1.779
658 1.97
659 2.066
660 2.075
661 2.094
662 2.107
663 2.101
664 2.078
665 2.085
666 2.091
667 2.08
668 2.076
669 2.091
670 2.087
671 2.08
672 2.071
673 2.066
674 2.063
675 2.061
676 2.058
677 2.056
678 2.054
679 2.053
680 2.051
681 2.05
682 2.049
683 2.048
684 2.048
685 2.048
686 2.048
687 2.048
688 2.048
689 2.052
690 2.064
691 2.069
692 2.059
693 2.052
694 2.057
695 2.046
696 2.045
697 2.052
698 2.025
699 2.051
700 2.057
701 2.03
702 2.018
703 2.027
704 2.037
705 2.059
706 2.047
707 2.023
708 2.026
709 2.008
710 1.996
711 2.004
712 1.978
713 1.971
714 1.976
715 1.973
716 1.966
717 1.975
718 1.974
719 1.949
720 1.95
721 1.954
722 1.956
723 1.954
724 1.963
725 1.959
726 1.943
727 1.949
728 1.946
729 1.911
730 1.903
731 1.939
732 1.935
733 1.934
734 1.935
735 1.937
736 1.917
737 1.912
738 1.91
739 1.867
740 1.871
741 1.861
742 1.848
743 1.876
744 1.904
745 1.886
746 1.906
747 1.9
748 1.907
749 1.896
750 1.875
