# Top-of-atmosphere (TOA) lunar irradiance from Miller and Turner (2009) by 10 nm increments
# First column wavelength (nm), second column TOA irradiance# Phase angle = 124
# Units = mW/m^2-micrometer

300 0.1499
310 0.1494
320 0.2265
330 0.3683
340 0.3317
350 0.3062
360 0.4042
370 0.4874
380 0.4249
390 0.5024
400 0.7241
410 0.7561
420 0.787
430 0.6947
440 0.8481
450 1.009
460 1.037
470 1.048
480 1.119
490 1.09
500 1.079
510 1.093
520 1.046
530 1.12
540 1.112
550 1.164
560 1.105
570 1.146
580 1.169
590 1.098
600 1.186
610 1.173
620 1.176
630 1.185
640 1.173
650 1.14
660 1.149
670 1.157
680 1.138
690 1.147
700 1.144
710 1.111
720 1.086
730 1.061
740 1.044
750 1.047
