# Top-of-atmosphere (TOA) lunar irradiance from Miller and Turner (2009) by 10 nm increments
# First column wavelength (nm), second column TOA irradiance# Phase angle = 108
# Units = mW/m^2-micrometer

300 0.09965
310 0.09934
320 0.1506
330 0.245
340 0.2206
350 0.2038
360 0.269
370 0.3244
380 0.2829
390 0.3345
400 0.4822
410 0.5036
420 0.5243
430 0.4629
440 0.5652
450 0.6725
460 0.6914
470 0.6985
480 0.7461
490 0.7269
500 0.7198
510 0.7294
520 0.6981
530 0.7476
540 0.7422
550 0.7775
560 0.7383
570 0.7658
580 0.7811
590 0.7335
600 0.7927
610 0.7841
620 0.7865
630 0.7924
640 0.7843
650 0.7625
660 0.769
670 0.7743
680 0.762
690 0.7676
700 0.7658
710 0.7438
720 0.7275
730 0.7108
740 0.6995
750 0.7019
