# Top-of-atmosphere (TOA) lunar irradiance from Miller and Turner (2009)
# First column wavelength (nm), second column TOA irradiance# Lunar phase angle: 163
# Irradiance units: mW/m^2-micrometer

300 0.4037
301 0.3001
302 0.3778
303 0.361
304 0.5105
305 0.4753
306 0.4852
307 0.4487
308 0.5217
309 0.5261
310 0.4017
311 0.5335
312 0.6328
313 0.5495
314 0.5961
315 0.5476
316 0.5637
317 0.5152
318 0.7173
319 0.5515
320 0.6078
321 0.7507
322 0.5954
323 0.6239
324 0.5817
325 0.697
326 0.7806
327 0.8898
328 0.8637
329 0.8029
330 0.9867
331 0.9108
332 0.9018
333 0.8749
334 0.8381
335 0.8963
336 0.9135
337 0.723
338 0.7937
339 0.8518
340 0.887
341 0.9795
342 0.8588
343 0.9554
344 0.9602
345 0.6926
346 0.9451
347 0.8771
348 0.87
349 0.907
350 0.8175
351 1.08
352 0.9639
353 0.8632
354 1.042
355 1.108
356 1.039
357 0.9287
358 0.8435
359 0.6297
360 1.077
361 1.016
362 0.9003
363 1.029
364 0.9718
365 1.049
366 1.204
367 1.281
368 1.235
369 1.102
370 1.297
371 1.15
372 1.33
373 1.098
374 0.9482
375 0.9673
376 1.163
377 1.141
378 1.375
379 1.476
380 1.128
381 1.321
382 1.201
383 0.8612
384 0.7177
385 1.041
386 1.095
387 1.109
388 1.083
389 1.042
390 1.332
391 1.363
392 1.586
393 1.2
394 0.5225
395 1.209
396 1.565
397 0.8316
398 0.9348
399 1.782
400 1.916
401 1.925
402 2.094
403 2.127
404 2.083
405 2.035
406 1.978
407 1.927
408 1.953
409 1.981
410 1.997
411 1.85
412 1.926
413 2.001
414 2.077
415 2.085
416 2.09
417 2.117
418 2.075
419 2.074
420 2.075
421 2.126
422 2.167
423 2.093
424 2.067
425 2.118
426 2.103
427 2.094
428 2.016
429 2.015
430 1.829
431 1.527
432 1.892
433 2.091
434 2.064
435 2.021
436 2.173
437 2.295
438 2.225
439 2.139
440 2.229
441 2.326
442 2.415
443 2.489
444 2.497
445 2.499
446 2.458
447 2.443
448 2.587
449 2.619
450 2.647
451 2.766
452 2.78
453 2.65
454 2.583
455 2.703
456 2.722
457 2.797
458 2.799
459 2.732
460 2.716
461 2.759
462 2.804
463 2.832
464 2.801
465 2.74
466 2.742
467 2.721
468 2.708
469 2.758
470 2.739
471 2.7
472 2.768
473 2.855
474 2.819
475 2.882
476 2.882
477 2.844
478 2.92
479 2.92
480 2.919
481 2.907
482 2.93
483 2.905
484 2.869
485 2.836
486 2.581
487 2.44
488 2.642
489 2.726
490 2.839
491 2.881
492 2.782
493 2.777
494 2.812
495 2.881
496 2.884
497 2.875
498 2.854
499 2.808
500 2.806
501 2.762
502 2.709
503 2.768
504 2.822
505 2.812
506 2.918
507 2.965
508 2.923
509 2.882
510 2.838
511 2.808
512 2.865
513 2.836
514 2.77
515 2.736
516 2.779
517 2.59
518 2.437
519 2.531
520 2.71
521 2.762
522 2.815
523 2.76
524 2.811
525 2.898
526 2.868
527 2.628
528 2.692
529 2.867
530 2.897
531 2.941
532 2.948
533 2.918
534 2.879
535 2.89
536 2.977
537 2.912
538 2.914
539 2.935
540 2.871
541 2.815
542 2.879
543 2.914
544 2.941
545 2.969
546 2.978
547 2.981
548 2.948
549 2.964
550 3.001
551 2.988
552 3.001
553 2.998
554 2.992
555 3.024
556 3.011
557 2.951
558 2.917
559 2.881
560 2.845
561 2.916
562 2.945
563 2.913
564 2.929
565 2.939
566 2.915
567 2.919
568 2.972
569 2.951
570 2.945
571 2.917
572 2.924
573 3.04
574 3.057
575 3.032
576 2.99
577 3.004
578 3.012
579 2.973
580 2.998
581 3.027
582 3.043
583 3.076
584 3.081
585 3.061
586 3.008
587 3.004
588 3.047
589 2.932
590 2.81
591 2.947
592 3.019
593 3.028
594 3.025
595 3.037
596 3.026
597 3.049
598 3.047
599 3.022
600 3.031
601 3.014
602 2.981
603 2.996
604 3.053
605 3.067
606 3.052
607 3.043
608 3.033
609 3.006
610 2.992
611 2.996
612 3.003
613 2.991
614 2.956
615 2.956
616 2.934
617 2.882
618 2.929
619 2.975
620 2.995
621 3.025
622 3.006
623 2.99
624 2.975
625 2.95
626 2.942
627 3.002
628 3.041
629 3.045
630 3.012
631 3
632 2.959
633 2.998
634 2.983
635 2.995
636 2.996
637 2.99
638 3.034
639 3.034
640 2.976
641 2.954
642 2.944
643 2.977
644 2.969
645 2.975
646 2.952
647 2.957
648 2.98
649 2.974
650 2.887
651 2.991
652 3.009
653 2.967
654 2.945
655 2.9
656 2.711
657 2.492
658 2.76
659 2.895
660 2.906
661 2.933
662 2.951
663 2.943
664 2.909
665 2.919
666 2.928
667 2.913
668 2.906
669 2.926
670 2.92
671 2.911
672 2.898
673 2.891
674 2.887
675 2.883
676 2.88
677 2.876
678 2.873
679 2.871
680 2.869
681 2.867
682 2.865
683 2.864
684 2.863
685 2.862
686 2.862
687 2.862
688 2.862
689 2.868
690 2.884
691 2.89
692 2.876
693 2.867
694 2.873
695 2.858
696 2.856
697 2.866
698 2.828
699 2.863
700 2.872
701 2.834
702 2.816
703 2.829
704 2.843
705 2.873
706 2.856
707 2.822
708 2.826
709 2.802
710 2.784
711 2.796
712 2.758
713 2.748
714 2.755
715 2.75
716 2.741
717 2.753
718 2.751
719 2.716
720 2.718
721 2.724
722 2.726
723 2.723
724 2.735
725 2.729
726 2.707
727 2.715
728 2.71
729 2.661
730 2.65
731 2.7
732 2.694
733 2.693
734 2.694
735 2.695
736 2.668
737 2.66
738 2.658
739 2.598
740 2.603
741 2.589
742 2.57
743 2.61
744 2.649
745 2.622
746 2.651
747 2.641
748 2.651
749 2.636
750 2.607
