# Top-of-atmosphere (TOA) lunar irradiance from Miller and Turner (2009) by 10 nm increments
# First column wavelength (nm), second column TOA irradiance# Phase angle = 136
# Units = mW/m^2-micrometer

300 0.1998
310 0.1991
320 0.3017
330 0.4905
340 0.4417
350 0.4077
360 0.538
370 0.6486
380 0.5653
390 0.6682
400 0.9629
410 1.005
420 1.046
430 0.9232
440 1.127
450 1.34
460 1.377
470 1.391
480 1.485
490 1.446
500 1.431
510 1.45
520 1.387
530 1.485
540 1.474
550 1.543
560 1.465
570 1.519
580 1.548
590 1.453
600 1.57
610 1.552
620 1.557
630 1.567
640 1.551
650 1.507
660 1.519
670 1.529
680 1.504
690 1.515
700 1.511
710 1.467
720 1.434
730 1.4
740 1.378
750 1.382
