# Top-of-atmosphere (TOA) lunar irradiance from Miller and Turner (2009)
# First column wavelength (nm), second column TOA irradiance# Lunar phase angle: 130
# Irradiance units: mW/m^2-micrometer

300 0.1729
301 0.1286
302 0.1619
303 0.1547
304 0.2188
305 0.2038
306 0.208
307 0.1924
308 0.2238
309 0.2257
310 0.1723
311 0.2289
312 0.2716
313 0.2359
314 0.2559
315 0.2351
316 0.2421
317 0.2213
318 0.3081
319 0.237
320 0.2612
321 0.3227
322 0.256
323 0.2683
324 0.2502
325 0.2998
326 0.3358
327 0.3828
328 0.3717
329 0.3456
330 0.4247
331 0.3922
332 0.3883
333 0.3768
334 0.361
335 0.3862
336 0.3936
337 0.3116
338 0.3421
339 0.3673
340 0.3825
341 0.4225
342 0.3704
343 0.4122
344 0.4143
345 0.2989
346 0.408
347 0.3786
348 0.3757
349 0.3917
350 0.3531
351 0.4667
352 0.4165
353 0.3731
354 0.4502
355 0.4791
356 0.4492
357 0.4016
358 0.3648
359 0.2724
360 0.4661
361 0.4396
362 0.3897
363 0.4455
364 0.4208
365 0.4541
366 0.5212
367 0.5549
368 0.5352
369 0.4775
370 0.562
371 0.4983
372 0.5764
373 0.4762
374 0.4112
375 0.4196
376 0.5043
377 0.495
378 0.5967
379 0.6406
380 0.4899
381 0.5736
382 0.5215
383 0.3741
384 0.3118
385 0.4522
386 0.4759
387 0.482
388 0.4709
389 0.4529
390 0.5791
391 0.5927
392 0.6901
393 0.5219
394 0.2274
395 0.5264
396 0.681
397 0.362
398 0.4071
399 0.7759
400 0.8347
401 0.8386
402 0.9124
403 0.9268
404 0.9078
405 0.8873
406 0.8626
407 0.8402
408 0.852
409 0.864
410 0.8715
411 0.8075
412 0.8405
413 0.8737
414 0.907
415 0.9106
416 0.913
417 0.9248
418 0.9065
419 0.9062
420 0.9071
421 0.9295
422 0.9475
423 0.9152
424 0.9042
425 0.9264
426 0.92
427 0.9163
428 0.8824
429 0.8821
430 0.8007
431 0.6687
432 0.8287
433 0.916
434 0.9043
435 0.8857
436 0.9522
437 1.006
438 0.9753
439 0.9378
440 0.9773
441 1.02
442 1.059
443 1.092
444 1.096
445 1.097
446 1.079
447 1.073
448 1.136
449 1.15
450 1.163
451 1.215
452 1.222
453 1.165
454 1.136
455 1.188
456 1.197
457 1.23
458 1.231
459 1.202
460 1.195
461 1.214
462 1.234
463 1.247
464 1.233
465 1.207
466 1.208
467 1.199
468 1.193
469 1.215
470 1.207
471 1.19
472 1.22
473 1.259
474 1.243
475 1.271
476 1.271
477 1.255
478 1.289
479 1.289
480 1.289
481 1.284
482 1.294
483 1.283
484 1.267
485 1.253
486 1.141
487 1.078
488 1.168
489 1.205
490 1.256
491 1.274
492 1.231
493 1.229
494 1.244
495 1.275
496 1.277
497 1.273
498 1.264
499 1.244
500 1.243
501 1.224
502 1.2
503 1.227
504 1.251
505 1.247
506 1.294
507 1.315
508 1.297
509 1.278
510 1.259
511 1.246
512 1.272
513 1.259
514 1.23
515 1.215
516 1.235
517 1.15
518 1.083
519 1.125
520 1.205
521 1.228
522 1.252
523 1.228
524 1.25
525 1.289
526 1.276
527 1.169
528 1.198
529 1.276
530 1.29
531 1.31
532 1.313
533 1.3
534 1.283
535 1.288
536 1.327
537 1.298
538 1.299
539 1.309
540 1.28
541 1.256
542 1.284
543 1.3
544 1.313
545 1.325
546 1.33
547 1.331
548 1.317
549 1.324
550 1.341
551 1.335
552 1.341
553 1.34
554 1.337
555 1.352
556 1.347
557 1.32
558 1.305
559 1.289
560 1.273
561 1.305
562 1.318
563 1.304
564 1.312
565 1.316
566 1.306
567 1.308
568 1.332
569 1.322
570 1.32
571 1.308
572 1.311
573 1.363
574 1.371
575 1.36
576 1.342
577 1.348
578 1.352
579 1.335
580 1.346
581 1.359
582 1.367
583 1.382
584 1.384
585 1.375
586 1.352
587 1.35
588 1.37
589 1.319
590 1.264
591 1.326
592 1.358
593 1.363
594 1.362
595 1.367
596 1.362
597 1.373
598 1.373
599 1.361
600 1.365
601 1.358
602 1.343
603 1.351
604 1.377
605 1.383
606 1.376
607 1.373
608 1.368
609 1.357
610 1.35
611 1.352
612 1.356
613 1.35
614 1.335
615 1.335
616 1.326
617 1.302
618 1.324
619 1.345
620 1.354
621 1.368
622 1.359
623 1.352
624 1.346
625 1.335
626 1.331
627 1.359
628 1.377
629 1.378
630 1.364
631 1.359
632 1.34
633 1.358
634 1.352
635 1.358
636 1.358
637 1.356
638 1.376
639 1.376
640 1.35
641 1.34
642 1.336
643 1.351
644 1.348
645 1.351
646 1.34
647 1.343
648 1.354
649 1.351
650 1.312
651 1.359
652 1.367
653 1.349
654 1.339
655 1.319
656 1.233
657 1.134
658 1.256
659 1.317
660 1.323
661 1.335
662 1.344
663 1.34
664 1.325
665 1.329
666 1.334
667 1.327
668 1.325
669 1.334
670 1.331
671 1.327
672 1.322
673 1.319
674 1.317
675 1.315
676 1.314
677 1.313
678 1.312
679 1.311
680 1.31
681 1.309
682 1.309
683 1.308
684 1.308
685 1.308
686 1.308
687 1.309
688 1.309
689 1.312
690 1.319
691 1.322
692 1.316
693 1.312
694 1.315
695 1.308
696 1.308
697 1.312
698 1.295
699 1.312
700 1.316
701 1.299
702 1.291
703 1.297
704 1.304
705 1.318
706 1.31
707 1.295
708 1.297
709 1.286
710 1.278
711 1.283
712 1.266
713 1.262
714 1.265
715 1.263
716 1.259
717 1.265
718 1.264
719 1.248
720 1.25
721 1.252
722 1.254
723 1.253
724 1.258
725 1.256
726 1.246
727 1.25
728 1.248
729 1.225
730 1.22
731 1.244
732 1.241
733 1.241
734 1.241
735 1.242
736 1.23
737 1.227
738 1.226
739 1.198
740 1.201
741 1.195
742 1.186
743 1.205
744 1.223
745 1.211
746 1.224
747 1.22
748 1.225
749 1.218
750 1.205
