# Top-of-atmosphere (TOA) lunar irradiance from Miller and Turner (2009)
# First column wavelength (nm), second column TOA irradiance# Lunar phase angle: 143
# Irradiance units: mW/m^2-micrometer

300 0.2383
301 0.1772
302 0.2231
303 0.2131
304 0.3014
305 0.2807
306 0.2866
307 0.2651
308 0.3082
309 0.3109
310 0.2373
311 0.3153
312 0.3741
313 0.3248
314 0.3524
315 0.3238
316 0.3334
317 0.3047
318 0.4243
319 0.3263
320 0.3596
321 0.4442
322 0.3524
323 0.3693
324 0.3443
325 0.4127
326 0.4622
327 0.5269
328 0.5115
329 0.4755
330 0.5845
331 0.5396
332 0.5343
333 0.5185
334 0.4967
335 0.5313
336 0.5415
337 0.4287
338 0.4706
339 0.5052
340 0.5261
341 0.581
342 0.5095
343 0.5668
344 0.5698
345 0.411
346 0.561
347 0.5206
348 0.5165
349 0.5385
350 0.4855
351 0.6415
352 0.5725
353 0.5128
354 0.6189
355 0.6585
356 0.6175
357 0.552
358 0.5014
359 0.3743
360 0.6405
361 0.6041
362 0.5354
363 0.6122
364 0.5781
365 0.6239
366 0.7161
367 0.7623
368 0.7352
369 0.656
370 0.7719
371 0.6844
372 0.7917
373 0.654
374 0.5647
375 0.5762
376 0.6926
377 0.6797
378 0.8193
379 0.8796
380 0.6726
381 0.7875
382 0.7159
383 0.5135
384 0.428
385 0.6207
386 0.6532
387 0.6615
388 0.6462
389 0.6215
390 0.7947
391 0.8133
392 0.9469
393 0.7161
394 0.3119
395 0.7222
396 0.9343
397 0.4967
398 0.5584
399 1.064
400 1.145
401 1.15
402 1.251
403 1.271
404 1.245
405 1.217
406 1.183
407 1.152
408 1.168
409 1.185
410 1.195
411 1.107
412 1.152
413 1.198
414 1.243
415 1.248
416 1.251
417 1.268
418 1.242
419 1.242
420 1.243
421 1.274
422 1.298
423 1.254
424 1.239
425 1.269
426 1.26
427 1.255
428 1.209
429 1.208
430 1.097
431 0.9159
432 1.135
433 1.255
434 1.238
435 1.213
436 1.304
437 1.378
438 1.335
439 1.284
440 1.338
441 1.397
442 1.45
443 1.495
444 1.5
445 1.502
446 1.477
447 1.468
448 1.555
449 1.574
450 1.591
451 1.663
452 1.672
453 1.594
454 1.554
455 1.626
456 1.638
457 1.683
458 1.685
459 1.644
460 1.635
461 1.661
462 1.688
463 1.705
464 1.687
465 1.651
466 1.652
467 1.639
468 1.632
469 1.662
470 1.65
471 1.627
472 1.669
473 1.721
474 1.7
475 1.738
476 1.738
477 1.715
478 1.761
479 1.762
480 1.762
481 1.754
482 1.768
483 1.753
484 1.732
485 1.712
486 1.559
487 1.473
488 1.596
489 1.647
490 1.715
491 1.741
492 1.681
493 1.678
494 1.7
495 1.742
496 1.743
497 1.738
498 1.726
499 1.698
500 1.697
501 1.671
502 1.639
503 1.675
504 1.708
505 1.702
506 1.766
507 1.795
508 1.77
509 1.745
510 1.719
511 1.701
512 1.736
513 1.718
514 1.678
515 1.658
516 1.685
517 1.57
518 1.477
519 1.534
520 1.644
521 1.675
522 1.707
523 1.674
524 1.705
525 1.758
526 1.74
527 1.595
528 1.634
529 1.74
530 1.759
531 1.786
532 1.79
533 1.772
534 1.749
535 1.755
536 1.809
537 1.769
538 1.771
539 1.784
540 1.745
541 1.712
542 1.75
543 1.772
544 1.789
545 1.806
546 1.812
547 1.813
548 1.794
549 1.804
550 1.827
551 1.819
552 1.827
553 1.825
554 1.822
555 1.842
556 1.834
557 1.798
558 1.777
559 1.756
560 1.733
561 1.777
562 1.795
563 1.776
564 1.786
565 1.792
566 1.778
567 1.78
568 1.813
569 1.8
570 1.797
571 1.78
572 1.784
573 1.855
574 1.866
575 1.851
576 1.825
577 1.834
578 1.839
579 1.816
580 1.831
581 1.849
582 1.86
583 1.88
584 1.883
585 1.871
586 1.839
587 1.836
588 1.863
589 1.793
590 1.718
591 1.803
592 1.847
593 1.852
594 1.851
595 1.859
596 1.852
597 1.866
598 1.866
599 1.85
600 1.856
601 1.846
602 1.826
603 1.835
604 1.871
605 1.879
606 1.87
607 1.865
608 1.859
609 1.843
610 1.835
611 1.837
612 1.841
613 1.834
614 1.813
615 1.813
616 1.8
617 1.768
618 1.798
619 1.826
620 1.839
621 1.857
622 1.846
623 1.836
624 1.827
625 1.812
626 1.807
627 1.844
628 1.869
629 1.871
630 1.851
631 1.844
632 1.819
633 1.843
634 1.835
635 1.842
636 1.843
637 1.84
638 1.866
639 1.867
640 1.831
641 1.818
642 1.812
643 1.833
644 1.828
645 1.832
646 1.818
647 1.821
648 1.836
649 1.832
650 1.779
651 1.843
652 1.854
653 1.829
654 1.815
655 1.788
656 1.671
657 1.537
658 1.702
659 1.786
660 1.793
661 1.809
662 1.821
663 1.816
664 1.796
665 1.802
666 1.807
667 1.798
668 1.795
669 1.807
670 1.804
671 1.798
672 1.791
673 1.786
674 1.784
675 1.782
676 1.78
677 1.778
678 1.776
679 1.775
680 1.774
681 1.773
682 1.772
683 1.772
684 1.771
685 1.771
686 1.771
687 1.771
688 1.772
689 1.776
690 1.786
691 1.79
692 1.781
693 1.776
694 1.78
695 1.771
696 1.77
697 1.776
698 1.753
699 1.775
700 1.78
701 1.757
702 1.746
703 1.754
704 1.764
705 1.782
706 1.772
707 1.751
708 1.754
709 1.739
710 1.728
711 1.735
712 1.712
713 1.707
714 1.711
715 1.708
716 1.702
717 1.711
718 1.709
719 1.688
720 1.689
721 1.693
722 1.694
723 1.693
724 1.701
725 1.697
726 1.683
727 1.689
728 1.686
729 1.655
730 1.649
731 1.68
732 1.677
733 1.676
734 1.677
735 1.678
736 1.661
737 1.657
738 1.655
739 1.619
740 1.622
741 1.613
742 1.602
743 1.626
744 1.651
745 1.635
746 1.653
747 1.647
748 1.653
749 1.644
750 1.626
