# Top-of-atmosphere (TOA) lunar irradiance from Miller and Turner (2009) by 10 nm increments
# First column wavelength (nm), second column TOA irradiance# Phase angle = 98
# Units = mW/m^2-micrometer

300 0.07436
310 0.07414
320 0.1124
330 0.1829
340 0.1647
350 0.1521
360 0.2009
370 0.2423
380 0.2113
390 0.2499
400 0.3603
410 0.3763
420 0.3918
430 0.346
440 0.4225
450 0.5028
460 0.517
470 0.5224
480 0.558
490 0.5438
500 0.5385
510 0.5458
520 0.5224
530 0.5595
540 0.5555
550 0.582
560 0.5528
570 0.5734
580 0.585
590 0.5494
600 0.5938
610 0.5875
620 0.5893
630 0.5938
640 0.5878
650 0.5716
660 0.5765
670 0.5805
680 0.5713
690 0.5756
700 0.5743
710 0.5579
720 0.5458
730 0.5333
740 0.5249
750 0.5268
