# Top-of-atmosphere (TOA) lunar irradiance from Miller and Turner (2009)
# First column wavelength (nm), second column TOA irradiance# Lunar phase angle: 141
# Irradiance units: mW/m^2-micrometer

300 0.2259
301 0.168
302 0.2115
303 0.2021
304 0.2858
305 0.2662
306 0.2717
307 0.2514
308 0.2923
309 0.2948
310 0.2251
311 0.299
312 0.3547
313 0.3081
314 0.3342
315 0.3071
316 0.3162
317 0.289
318 0.4024
319 0.3095
320 0.341
321 0.4213
322 0.3342
323 0.3502
324 0.3266
325 0.3914
326 0.4384
327 0.4998
328 0.4852
329 0.4511
330 0.5544
331 0.5119
332 0.5069
333 0.4918
334 0.4712
335 0.504
336 0.5137
337 0.4067
338 0.4465
339 0.4792
340 0.4991
341 0.5512
342 0.4834
343 0.5378
344 0.5406
345 0.39
346 0.5322
347 0.494
348 0.4901
349 0.511
350 0.4606
351 0.6087
352 0.5432
353 0.4866
354 0.5872
355 0.6248
356 0.5859
357 0.5238
358 0.4757
359 0.3552
360 0.6078
361 0.5733
362 0.5081
363 0.5809
364 0.5486
365 0.592
366 0.6796
367 0.7235
368 0.6977
369 0.6225
370 0.7326
371 0.6495
372 0.7514
373 0.6207
374 0.536
375 0.5469
376 0.6573
377 0.6452
378 0.7776
379 0.8349
380 0.6384
381 0.7475
382 0.6795
383 0.4874
384 0.4062
385 0.5892
386 0.62
387 0.6279
388 0.6134
389 0.59
390 0.7544
391 0.772
392 0.8989
393 0.6798
394 0.2961
395 0.6856
396 0.887
397 0.4715
398 0.5302
399 1.01
400 1.087
401 1.092
402 1.188
403 1.207
404 1.182
405 1.155
406 1.123
407 1.094
408 1.109
409 1.125
410 1.135
411 1.051
412 1.094
413 1.137
414 1.181
415 1.185
416 1.188
417 1.204
418 1.18
419 1.179
420 1.18
421 1.21
422 1.233
423 1.191
424 1.177
425 1.205
426 1.197
427 1.192
428 1.148
429 1.148
430 1.042
431 0.8699
432 1.078
433 1.192
434 1.176
435 1.152
436 1.239
437 1.308
438 1.268
439 1.22
440 1.271
441 1.327
442 1.378
443 1.42
444 1.425
445 1.426
446 1.403
447 1.395
448 1.477
449 1.496
450 1.511
451 1.58
452 1.588
453 1.514
454 1.476
455 1.545
456 1.556
457 1.599
458 1.6
459 1.562
460 1.553
461 1.578
462 1.604
463 1.62
464 1.603
465 1.568
466 1.569
467 1.558
468 1.55
469 1.579
470 1.568
471 1.546
472 1.586
473 1.635
474 1.615
475 1.652
476 1.652
477 1.63
478 1.674
479 1.674
480 1.674
481 1.667
482 1.681
483 1.666
484 1.646
485 1.627
486 1.482
487 1.4
488 1.517
489 1.565
490 1.63
491 1.655
492 1.598
493 1.595
494 1.615
495 1.655
496 1.657
497 1.652
498 1.64
499 1.615
500 1.613
501 1.589
502 1.558
503 1.592
504 1.624
505 1.618
506 1.679
507 1.706
508 1.683
509 1.659
510 1.634
511 1.617
512 1.65
513 1.634
514 1.596
515 1.577
516 1.602
517 1.492
518 1.404
519 1.459
520 1.563
521 1.593
522 1.624
523 1.592
524 1.622
525 1.672
526 1.655
527 1.516
528 1.554
529 1.655
530 1.673
531 1.698
532 1.703
533 1.685
534 1.663
535 1.669
536 1.72
537 1.683
538 1.684
539 1.696
540 1.66
541 1.628
542 1.665
543 1.685
544 1.701
545 1.717
546 1.723
547 1.725
548 1.706
549 1.716
550 1.738
551 1.73
552 1.738
553 1.736
554 1.733
555 1.752
556 1.744
557 1.71
558 1.691
559 1.67
560 1.649
561 1.691
562 1.707
563 1.689
564 1.699
565 1.705
566 1.691
567 1.693
568 1.725
569 1.712
570 1.709
571 1.694
572 1.698
573 1.765
574 1.775
575 1.761
576 1.737
577 1.746
578 1.75
579 1.728
580 1.743
581 1.76
582 1.769
583 1.789
584 1.792
585 1.78
586 1.75
587 1.748
588 1.773
589 1.707
590 1.635
591 1.716
592 1.758
593 1.763
594 1.762
595 1.769
596 1.763
597 1.776
598 1.776
599 1.761
600 1.766
601 1.757
602 1.738
603 1.747
604 1.78
605 1.789
606 1.78
607 1.775
608 1.769
609 1.754
610 1.746
611 1.749
612 1.753
613 1.746
614 1.726
615 1.726
616 1.714
617 1.683
618 1.711
619 1.738
620 1.751
621 1.768
622 1.757
623 1.748
624 1.74
625 1.725
626 1.721
627 1.756
628 1.779
629 1.781
630 1.763
631 1.756
632 1.732
633 1.755
634 1.747
635 1.754
636 1.755
637 1.752
638 1.777
639 1.778
640 1.744
641 1.731
642 1.726
643 1.745
644 1.741
645 1.745
646 1.731
647 1.735
648 1.748
649 1.745
650 1.694
651 1.756
652 1.766
653 1.742
654 1.729
655 1.703
656 1.592
657 1.464
658 1.621
659 1.701
660 1.708
661 1.724
662 1.735
663 1.73
664 1.71
665 1.716
666 1.722
667 1.713
668 1.71
669 1.722
670 1.718
671 1.713
672 1.706
673 1.702
674 1.7
675 1.697
676 1.696
677 1.694
678 1.692
679 1.691
680 1.69
681 1.689
682 1.688
683 1.688
684 1.688
685 1.688
686 1.688
687 1.688
688 1.688
689 1.692
690 1.702
691 1.705
692 1.697
693 1.692
694 1.696
695 1.687
696 1.686
697 1.692
698 1.67
699 1.691
700 1.697
701 1.674
702 1.664
703 1.672
704 1.681
705 1.699
706 1.688
707 1.669
708 1.671
709 1.657
710 1.647
711 1.654
712 1.632
713 1.627
714 1.631
715 1.628
716 1.623
717 1.63
718 1.629
719 1.609
720 1.61
721 1.614
722 1.615
723 1.614
724 1.621
725 1.618
726 1.605
727 1.61
728 1.607
729 1.578
730 1.572
731 1.602
732 1.599
733 1.598
734 1.599
735 1.6
736 1.584
737 1.58
738 1.578
739 1.543
740 1.546
741 1.538
742 1.527
743 1.551
744 1.574
745 1.559
746 1.576
747 1.57
748 1.576
749 1.568
750 1.551
