# Top-of-atmosphere (TOA) lunar irradiance from Miller and Turner (2009) by 10 nm increments
# First column wavelength (nm), second column TOA irradiance# Phase angle = 70
# Units = mW/m^2-micrometer

300 0.02477
310 0.02473
320 0.03754
330 0.06113
340 0.05513
350 0.05098
360 0.06739
370 0.08138
380 0.07104
390 0.08411
400 0.1214
410 0.127
420 0.1323
430 0.117
440 0.143
450 0.1704
460 0.1754
470 0.1775
480 0.1898
490 0.1851
500 0.1836
510 0.1863
520 0.1785
530 0.1914
540 0.1902
550 0.1995
560 0.1897
570 0.197
580 0.2012
590 0.1892
600 0.2047
610 0.2028
620 0.2037
630 0.2054
640 0.2036
650 0.1982
660 0.2002
670 0.2018
680 0.1988
690 0.2005
700 0.2003
710 0.1948
720 0.1908
730 0.1867
740 0.1839
750 0.1848
