# Top-of-atmosphere (TOA) lunar irradiance from Miller and Turner (2009) by 10 nm increments
# First column wavelength (nm), second column TOA irradiance# Phase angle = 116
# Units = mW/m^2-micrometer

300 0.123
310 0.1226
320 0.1859
330 0.3023
340 0.2723
350 0.2514
360 0.3319
370 0.4002
380 0.3489
390 0.4126
400 0.5947
410 0.6211
420 0.6465
430 0.5708
440 0.6968
450 0.829
460 0.8522
470 0.861
480 0.9195
490 0.8958
500 0.8869
510 0.8987
520 0.86
530 0.921
540 0.9142
550 0.9576
560 0.9092
570 0.943
580 0.9618
590 0.9031
600 0.9759
610 0.9652
620 0.9681
630 0.9752
640 0.9652
650 0.9383
660 0.9462
670 0.9526
680 0.9374
690 0.9442
700 0.9419
710 0.9147
720 0.8947
730 0.874
740 0.86
750 0.8629
