# Top-of-atmosphere (TOA) lunar irradiance from Miller and Turner (2009)
# First column wavelength (nm), second column TOA irradiance# Lunar phase angle: 145
# Irradiance units: mW/m^2-micrometer

300 0.2513
301 0.1868
302 0.2352
303 0.2248
304 0.3179
305 0.296
306 0.3022
307 0.2795
308 0.325
309 0.3278
310 0.2503
311 0.3325
312 0.3944
313 0.3425
314 0.3716
315 0.3414
316 0.3515
317 0.3213
318 0.4473
319 0.344
320 0.3791
321 0.4683
322 0.3715
323 0.3893
324 0.363
325 0.4351
326 0.4873
327 0.5555
328 0.5393
329 0.5013
330 0.6162
331 0.5689
332 0.5633
333 0.5465
334 0.5236
335 0.56
336 0.5709
337 0.4519
338 0.4961
339 0.5325
340 0.5545
341 0.6125
342 0.537
343 0.5975
344 0.6006
345 0.4333
346 0.5913
347 0.5487
348 0.5444
349 0.5676
350 0.5117
351 0.6762
352 0.6034
353 0.5405
354 0.6522
355 0.694
356 0.6507
357 0.5817
358 0.5284
359 0.3945
360 0.6749
361 0.6366
362 0.5642
363 0.6451
364 0.6092
365 0.6574
366 0.7546
367 0.8033
368 0.7747
369 0.6912
370 0.8133
371 0.7211
372 0.8342
373 0.6891
374 0.595
375 0.6071
376 0.7297
377 0.7162
378 0.8632
379 0.9267
380 0.7086
381 0.8297
382 0.7542
383 0.541
384 0.4509
385 0.6539
386 0.6881
387 0.6968
388 0.6808
389 0.6547
390 0.8372
391 0.8567
392 0.9975
393 0.7543
394 0.3286
395 0.7608
396 0.9842
397 0.5232
398 0.5882
399 1.121
400 1.206
401 1.212
402 1.318
403 1.339
404 1.311
405 1.282
406 1.246
407 1.213
408 1.23
409 1.248
410 1.258
411 1.166
412 1.213
413 1.261
414 1.309
415 1.315
416 1.318
417 1.335
418 1.308
419 1.308
420 1.309
421 1.341
422 1.367
423 1.32
424 1.305
425 1.336
426 1.327
427 1.322
428 1.273
429 1.272
430 1.155
431 0.9643
432 1.195
433 1.321
434 1.304
435 1.277
436 1.373
437 1.45
438 1.406
439 1.352
440 1.409
441 1.471
442 1.527
443 1.574
444 1.579
445 1.581
446 1.555
447 1.545
448 1.637
449 1.657
450 1.675
451 1.751
452 1.759
453 1.678
454 1.636
455 1.711
456 1.724
457 1.771
458 1.773
459 1.73
460 1.72
461 1.748
462 1.777
463 1.795
464 1.775
465 1.737
466 1.738
467 1.725
468 1.717
469 1.749
470 1.737
471 1.713
472 1.756
473 1.811
474 1.789
475 1.829
476 1.829
477 1.805
478 1.853
479 1.854
480 1.854
481 1.846
482 1.861
483 1.845
484 1.822
485 1.802
486 1.64
487 1.55
488 1.679
489 1.732
490 1.804
491 1.832
492 1.769
493 1.766
494 1.788
495 1.832
496 1.834
497 1.829
498 1.816
499 1.787
500 1.785
501 1.758
502 1.724
503 1.762
504 1.797
505 1.791
506 1.858
507 1.888
508 1.862
509 1.835
510 1.808
511 1.789
512 1.826
513 1.807
514 1.765
515 1.744
516 1.772
517 1.651
518 1.554
519 1.614
520 1.729
521 1.762
522 1.796
523 1.761
524 1.793
525 1.849
526 1.83
527 1.677
528 1.718
529 1.83
530 1.85
531 1.878
532 1.883
533 1.863
534 1.839
535 1.846
536 1.902
537 1.86
538 1.862
539 1.876
540 1.835
541 1.8
542 1.84
543 1.863
544 1.881
545 1.899
546 1.905
547 1.906
548 1.886
549 1.896
550 1.92
551 1.912
552 1.921
553 1.919
554 1.915
555 1.936
556 1.928
557 1.89
558 1.868
559 1.845
560 1.822
561 1.868
562 1.887
563 1.866
564 1.877
565 1.883
566 1.868
567 1.871
568 1.905
569 1.892
570 1.888
571 1.871
572 1.876
573 1.95
574 1.961
575 1.946
576 1.919
577 1.928
578 1.933
579 1.908
580 1.925
581 1.943
582 1.954
583 1.975
584 1.979
585 1.966
586 1.932
587 1.93
588 1.958
589 1.884
590 1.806
591 1.894
592 1.941
593 1.947
594 1.945
595 1.953
596 1.946
597 1.961
598 1.96
599 1.944
600 1.95
601 1.939
602 1.918
603 1.928
604 1.965
605 1.974
606 1.965
607 1.959
608 1.953
609 1.936
610 1.927
611 1.93
612 1.934
613 1.927
614 1.905
615 1.905
616 1.891
617 1.858
618 1.888
619 1.918
620 1.931
621 1.951
622 1.939
623 1.928
624 1.919
625 1.903
626 1.898
627 1.937
628 1.963
629 1.965
630 1.944
631 1.937
632 1.91
633 1.936
634 1.927
635 1.935
636 1.935
637 1.932
638 1.96
639 1.961
640 1.923
641 1.909
642 1.903
643 1.925
644 1.92
645 1.924
646 1.909
647 1.913
648 1.928
649 1.924
650 1.868
651 1.935
652 1.947
653 1.92
654 1.906
655 1.877
656 1.755
657 1.614
658 1.787
659 1.875
660 1.882
661 1.9
662 1.912
663 1.907
664 1.885
665 1.891
666 1.897
667 1.888
668 1.884
669 1.897
670 1.894
671 1.888
672 1.88
673 1.875
674 1.873
675 1.87
676 1.868
677 1.866
678 1.865
679 1.863
680 1.862
681 1.861
682 1.86
683 1.859
684 1.859
685 1.859
686 1.859
687 1.859
688 1.86
689 1.863
690 1.874
691 1.878
692 1.869
693 1.864
694 1.868
695 1.858
696 1.857
697 1.864
698 1.839
699 1.862
700 1.868
701 1.843
702 1.832
703 1.841
704 1.85
705 1.87
706 1.859
707 1.837
708 1.84
709 1.824
710 1.813
711 1.821
712 1.797
713 1.79
714 1.795
715 1.792
716 1.786
717 1.795
718 1.793
719 1.77
720 1.772
721 1.776
722 1.777
723 1.776
724 1.784
725 1.78
726 1.766
727 1.771
728 1.768
729 1.736
730 1.73
731 1.762
732 1.759
733 1.758
734 1.759
735 1.76
736 1.742
737 1.738
738 1.736
739 1.698
740 1.701
741 1.692
742 1.68
743 1.706
744 1.731
745 1.714
746 1.733
747 1.727
748 1.734
749 1.724
750 1.705
