# Top-of-atmosphere (TOA) lunar irradiance from Miller and Turner (2009)
# First column wavelength (nm), second column TOA irradiance# Lunar phase angle: 161
# Irradiance units: mW/m^2-micrometer

300 0.3828
301 0.2846
302 0.3582
303 0.3423
304 0.484
305 0.4507
306 0.46
307 0.4255
308 0.4947
309 0.4989
310 0.3809
311 0.5059
312 0.6001
313 0.5211
314 0.5652
315 0.5193
316 0.5346
317 0.4886
318 0.6802
319 0.5231
320 0.5764
321 0.7119
322 0.5647
323 0.5917
324 0.5517
325 0.6611
326 0.7403
327 0.8439
328 0.8192
329 0.7615
330 0.9358
331 0.8639
332 0.8554
333 0.8299
334 0.795
335 0.8502
336 0.8665
337 0.6858
338 0.7529
339 0.8081
340 0.8414
341 0.9292
342 0.8147
343 0.9063
344 0.9109
345 0.6571
346 0.8966
347 0.8321
348 0.8254
349 0.8605
350 0.7756
351 1.025
352 0.9145
353 0.819
354 0.9883
355 1.051
356 0.9858
357 0.8812
358 0.8003
359 0.5974
360 1.022
361 0.964
362 0.8543
363 0.9766
364 0.9222
365 0.995
366 1.142
367 1.216
368 1.172
369 1.046
370 1.231
371 1.091
372 1.262
373 1.042
374 0.8998
375 0.918
376 1.103
377 1.083
378 1.305
379 1.401
380 1.071
381 1.254
382 1.14
383 0.8174
384 0.6812
385 0.9878
386 1.039
387 1.053
388 1.028
389 0.9887
390 1.264
391 1.293
392 1.506
393 1.139
394 0.496
395 1.148
396 1.485
397 0.7894
398 0.8875
399 1.691
400 1.819
401 1.827
402 1.988
403 2.019
404 1.977
405 1.932
406 1.878
407 1.829
408 1.855
409 1.88
410 1.896
411 1.757
412 1.828
413 1.9
414 1.972
415 1.98
416 1.985
417 2.01
418 1.97
419 1.969
420 1.971
421 2.019
422 2.058
423 1.987
424 1.963
425 2.011
426 1.997
427 1.989
428 1.915
429 1.914
430 1.737
431 1.45
432 1.797
433 1.986
434 1.96
435 1.92
436 2.064
437 2.18
438 2.113
439 2.031
440 2.117
441 2.209
442 2.294
443 2.364
444 2.372
445 2.374
446 2.335
447 2.32
448 2.457
449 2.488
450 2.514
451 2.628
452 2.641
453 2.518
454 2.454
455 2.568
456 2.586
457 2.657
458 2.659
459 2.595
460 2.58
461 2.621
462 2.664
463 2.69
464 2.662
465 2.604
466 2.605
467 2.586
468 2.573
469 2.62
470 2.602
471 2.565
472 2.63
473 2.712
474 2.679
475 2.739
476 2.738
477 2.702
478 2.774
479 2.775
480 2.774
481 2.762
482 2.784
483 2.76
484 2.726
485 2.695
486 2.453
487 2.319
488 2.511
489 2.591
490 2.698
491 2.738
492 2.644
493 2.639
494 2.673
495 2.738
496 2.741
497 2.732
498 2.713
499 2.669
500 2.667
501 2.626
502 2.575
503 2.631
504 2.683
505 2.674
506 2.774
507 2.818
508 2.779
509 2.739
510 2.698
511 2.67
512 2.724
513 2.696
514 2.633
515 2.601
516 2.642
517 2.462
518 2.317
519 2.406
520 2.577
521 2.626
522 2.677
523 2.625
524 2.673
525 2.756
526 2.727
527 2.498
528 2.56
529 2.726
530 2.755
531 2.796
532 2.804
533 2.774
534 2.737
535 2.748
536 2.831
537 2.769
538 2.771
539 2.791
540 2.73
541 2.678
542 2.738
543 2.772
544 2.797
545 2.824
546 2.832
547 2.835
548 2.804
549 2.819
550 2.855
551 2.842
552 2.854
553 2.852
554 2.845
555 2.876
556 2.864
557 2.807
558 2.775
559 2.741
560 2.706
561 2.774
562 2.801
563 2.771
564 2.786
565 2.796
566 2.773
567 2.776
568 2.827
569 2.807
570 2.802
571 2.775
572 2.782
573 2.892
574 2.908
575 2.885
576 2.845
577 2.858
578 2.866
579 2.829
580 2.852
581 2.88
582 2.896
583 2.927
584 2.932
585 2.912
586 2.862
587 2.858
588 2.9
589 2.79
590 2.674
591 2.805
592 2.873
593 2.881
594 2.879
595 2.89
596 2.88
597 2.902
598 2.9
599 2.876
600 2.884
601 2.869
602 2.837
603 2.852
604 2.906
605 2.919
606 2.905
607 2.896
608 2.887
609 2.862
610 2.848
611 2.851
612 2.858
613 2.847
614 2.814
615 2.813
616 2.793
617 2.743
618 2.788
619 2.832
620 2.852
621 2.88
622 2.862
623 2.846
624 2.832
625 2.809
626 2.801
627 2.858
628 2.895
629 2.899
630 2.868
631 2.856
632 2.817
633 2.854
634 2.841
635 2.852
636 2.853
637 2.847
638 2.889
639 2.889
640 2.833
641 2.813
642 2.803
643 2.835
644 2.827
645 2.833
646 2.811
647 2.816
648 2.838
649 2.832
650 2.75
651 2.849
652 2.865
653 2.826
654 2.804
655 2.762
656 2.581
657 2.374
658 2.628
659 2.757
660 2.768
661 2.793
662 2.811
663 2.803
664 2.771
665 2.78
666 2.789
667 2.774
668 2.768
669 2.788
670 2.782
671 2.773
672 2.761
673 2.754
674 2.75
675 2.746
676 2.743
677 2.74
678 2.737
679 2.735
680 2.733
681 2.731
682 2.73
683 2.728
684 2.728
685 2.727
686 2.727
687 2.727
688 2.727
689 2.733
690 2.748
691 2.754
692 2.74
693 2.732
694 2.737
695 2.723
696 2.722
697 2.731
698 2.695
699 2.728
700 2.737
701 2.7
702 2.684
703 2.696
704 2.71
705 2.738
706 2.722
707 2.69
708 2.693
709 2.67
710 2.653
711 2.664
712 2.629
713 2.619
714 2.626
715 2.621
716 2.612
717 2.624
718 2.622
719 2.589
720 2.591
721 2.596
722 2.598
723 2.596
724 2.607
725 2.601
726 2.58
727 2.588
728 2.584
729 2.537
730 2.526
731 2.574
732 2.568
733 2.567
734 2.568
735 2.57
736 2.543
737 2.536
738 2.534
739 2.477
740 2.482
741 2.468
742 2.451
743 2.488
744 2.525
745 2.5
746 2.528
747 2.518
748 2.528
749 2.514
750 2.486
