# Top-of-atmosphere (TOA) lunar irradiance from Miller and Turner (2009)
# First column wavelength (nm), second column TOA irradiance# Lunar phase angle: 180
# Irradiance units: mW/m^2-micrometer

300 0.6344
301 0.4716
302 0.5937
303 0.5671
304 0.8019
305 0.7466
306 0.762
307 0.7047
308 0.8193
309 0.8261
310 0.6306
311 0.8375
312 0.9933
313 0.8625
314 0.9354
315 0.8593
316 0.8845
317 0.8082
318 1.125
319 0.8651
320 0.9532
321 1.177
322 0.9336
323 0.9782
324 0.912
325 1.093
326 1.223
327 1.394
328 1.353
329 1.258
330 1.546
331 1.427
332 1.413
333 1.37
334 1.312
335 1.404
336 1.43
337 1.132
338 1.242
339 1.333
340 1.388
341 1.533
342 1.344
343 1.495
344 1.502
345 1.083
346 1.478
347 1.372
348 1.36
349 1.418
350 1.278
351 1.689
352 1.507
353 1.349
354 1.628
355 1.732
356 1.623
357 1.451
358 1.318
359 0.9835
360 1.682
361 1.586
362 1.406
363 1.607
364 1.517
365 1.637
366 1.878
367 1.999
368 1.928
369 1.72
370 2.023
371 1.793
372 2.074
373 1.713
374 1.479
375 1.508
376 1.813
377 1.779
378 2.143
379 2.301
380 1.759
381 2.059
382 1.871
383 1.342
384 1.118
385 1.621
386 1.706
387 1.727
388 1.687
389 1.622
390 2.073
391 2.121
392 2.469
393 1.867
394 0.8131
395 1.882
396 2.434
397 1.294
398 1.454
399 2.771
400 2.98
401 2.993
402 3.256
403 3.307
404 3.238
405 3.164
406 3.075
407 2.994
408 3.036
409 3.077
410 3.103
411 2.875
412 2.991
413 3.108
414 3.226
415 3.238
416 3.246
417 3.287
418 3.221
419 3.219
420 3.221
421 3.3
422 3.363
423 3.247
424 3.207
425 3.285
426 3.262
427 3.248
428 3.127
429 3.125
430 2.836
431 2.367
432 2.933
433 3.241
434 3.199
435 3.132
436 3.367
437 3.556
438 3.446
439 3.313
440 3.452
441 3.602
442 3.74
443 3.854
444 3.866
445 3.869
446 3.805
447 3.781
448 4.003
449 4.053
450 4.095
451 4.279
452 4.3
453 4.099
454 3.995
455 4.18
456 4.209
457 4.325
458 4.328
459 4.222
460 4.197
461 4.264
462 4.333
463 4.376
464 4.328
465 4.233
466 4.235
467 4.203
468 4.182
469 4.258
470 4.228
471 4.168
472 4.273
473 4.406
474 4.351
475 4.448
476 4.447
477 4.388
478 4.504
479 4.504
480 4.503
481 4.483
482 4.518
483 4.479
484 4.423
485 4.372
486 3.979
487 3.76
488 4.072
489 4.201
490 4.374
491 4.439
492 4.285
493 4.277
494 4.331
495 4.437
496 4.44
497 4.426
498 4.393
499 4.323
500 4.318
501 4.251
502 4.169
503 4.259
504 4.342
505 4.327
506 4.488
507 4.56
508 4.496
509 4.431
510 4.363
511 4.317
512 4.405
513 4.36
514 4.257
515 4.205
516 4.271
517 3.979
518 3.744
519 3.887
520 4.163
521 4.243
522 4.323
523 4.239
524 4.316
525 4.449
526 4.403
527 4.033
528 4.132
529 4.399
530 4.445
531 4.512
532 4.523
533 4.475
534 4.415
535 4.431
536 4.565
537 4.464
538 4.467
539 4.499
540 4.4
541 4.315
542 4.412
543 4.466
544 4.506
545 4.548
546 4.562
547 4.565
548 4.515
549 4.539
550 4.596
551 4.575
552 4.594
553 4.589
554 4.579
555 4.628
556 4.608
557 4.516
558 4.463
559 4.408
560 4.351
561 4.46
562 4.503
563 4.454
564 4.479
565 4.493
566 4.456
567 4.461
568 4.542
569 4.509
570 4.5
571 4.457
572 4.467
573 4.643
574 4.668
575 4.631
576 4.566
577 4.587
578 4.599
579 4.539
580 4.576
581 4.62
582 4.645
583 4.694
584 4.701
585 4.669
586 4.588
587 4.582
588 4.647
589 4.472
590 4.284
591 4.494
592 4.603
593 4.615
594 4.611
595 4.629
596 4.611
597 4.646
598 4.643
599 4.603
600 4.617
601 4.591
602 4.54
603 4.562
604 4.649
605 4.669
606 4.646
607 4.632
608 4.616
609 4.575
610 4.553
611 4.558
612 4.568
613 4.55
614 4.496
615 4.495
616 4.462
617 4.382
618 4.453
619 4.522
620 4.553
621 4.598
622 4.569
623 4.543
624 4.521
625 4.483
626 4.469
627 4.56
628 4.619
629 4.624
630 4.574
631 4.555
632 4.492
633 4.551
634 4.528
635 4.546
636 4.547
637 4.538
638 4.603
639 4.603
640 4.514
641 4.481
642 4.465
643 4.515
644 4.502
645 4.511
646 4.475
647 4.483
648 4.517
649 4.507
650 4.375
651 4.533
652 4.558
653 4.495
654 4.46
655 4.392
656 4.105
657 3.774
658 4.178
659 4.382
660 4.399
661 4.439
662 4.467
663 4.454
664 4.402
665 4.416
666 4.429
667 4.406
668 4.396
669 4.426
670 4.416
671 4.401
672 4.382
673 4.371
674 4.364
675 4.357
676 4.352
677 4.346
678 4.341
679 4.337
680 4.333
681 4.33
682 4.327
683 4.325
684 4.323
685 4.322
686 4.321
687 4.32
688 4.32
689 4.328
690 4.352
691 4.361
692 4.339
693 4.325
694 4.333
695 4.31
696 4.307
697 4.321
698 4.264
699 4.316
700 4.329
701 4.271
702 4.244
703 4.263
704 4.284
705 4.329
706 4.302
707 4.251
708 4.257
709 4.22
710 4.192
711 4.209
712 4.153
713 4.138
714 4.147
715 4.139
716 4.125
717 4.143
718 4.139
719 4.086
720 4.088
721 4.097
722 4.099
723 4.095
724 4.113
725 4.103
726 4.069
727 4.081
728 4.074
729 3.999
730 3.983
731 4.057
732 4.048
733 4.046
734 4.047
735 4.049
736 4.006
737 3.995
738 3.99
739 3.901
740 3.907
741 3.886
742 3.858
743 3.917
744 3.975
745 3.935
746 3.977
747 3.962
748 3.976
749 3.954
750 3.91
