# Top-of-atmosphere (TOA) lunar irradiance from Miller and Turner (2009)
# First column wavelength (nm), second column TOA irradiance# Lunar phase angle: 132
# Irradiance units: mW/m^2-micrometer

300 0.1814
301 0.1349
302 0.1699
303 0.1623
304 0.2296
305 0.2138
306 0.2183
307 0.2019
308 0.2348
309 0.2368
310 0.1808
311 0.2402
312 0.285
313 0.2475
314 0.2685
315 0.2467
316 0.254
317 0.2322
318 0.3233
319 0.2487
320 0.274
321 0.3385
322 0.2686
323 0.2815
324 0.2625
325 0.3146
326 0.3523
327 0.4017
328 0.39
329 0.3626
330 0.4456
331 0.4114
332 0.4074
333 0.3953
334 0.3788
335 0.4051
336 0.413
337 0.3269
338 0.3589
339 0.3853
340 0.4013
341 0.4432
342 0.3886
343 0.4324
344 0.4347
345 0.3136
346 0.428
347 0.3972
348 0.3941
349 0.4109
350 0.3704
351 0.4896
352 0.4369
353 0.3913
354 0.4723
355 0.5026
356 0.4713
357 0.4213
358 0.3827
359 0.2857
360 0.4889
361 0.4612
362 0.4087
363 0.4674
364 0.4414
365 0.4763
366 0.5468
367 0.5821
368 0.5614
369 0.5009
370 0.5895
371 0.5227
372 0.6046
373 0.4995
374 0.4313
375 0.4401
376 0.529
377 0.5192
378 0.6258
379 0.672
380 0.5138
381 0.6017
382 0.547
383 0.3924
384 0.327
385 0.4743
386 0.4991
387 0.5055
388 0.4939
389 0.475
390 0.6074
391 0.6216
392 0.7238
393 0.5474
394 0.2385
395 0.5521
396 0.7143
397 0.3797
398 0.4269
399 0.8138
400 0.8754
401 0.8795
402 0.9569
403 0.972
404 0.9521
405 0.9305
406 0.9046
407 0.8811
408 0.8935
409 0.9061
410 0.914
411 0.8468
412 0.8814
413 0.9162
414 0.9512
415 0.955
416 0.9574
417 0.9698
418 0.9506
419 0.9503
420 0.9512
421 0.9747
422 0.9936
423 0.9597
424 0.9482
425 0.9714
426 0.9648
427 0.9608
428 0.9253
429 0.925
430 0.8396
431 0.7012
432 0.869
433 0.9605
434 0.9482
435 0.9287
436 0.9985
437 1.055
438 1.023
439 0.9833
440 1.025
441 1.07
442 1.111
443 1.145
444 1.149
445 1.15
446 1.131
447 1.125
448 1.191
449 1.206
450 1.219
451 1.274
452 1.281
453 1.221
454 1.191
455 1.246
456 1.255
457 1.29
458 1.291
459 1.26
460 1.253
461 1.273
462 1.294
463 1.307
464 1.293
465 1.265
466 1.266
467 1.257
468 1.251
469 1.274
470 1.265
471 1.248
472 1.28
473 1.32
474 1.303
475 1.333
476 1.333
477 1.316
478 1.351
479 1.351
480 1.351
481 1.346
482 1.357
483 1.345
484 1.329
485 1.314
486 1.196
487 1.13
488 1.224
489 1.264
490 1.316
491 1.336
492 1.29
493 1.288
494 1.304
495 1.337
496 1.338
497 1.334
498 1.325
499 1.304
500 1.303
501 1.283
502 1.258
503 1.286
504 1.311
505 1.307
506 1.356
507 1.378
508 1.359
509 1.34
510 1.32
511 1.306
512 1.333
513 1.32
514 1.289
515 1.274
516 1.294
517 1.206
518 1.135
519 1.179
520 1.263
521 1.287
522 1.312
523 1.287
524 1.31
525 1.351
526 1.338
527 1.226
528 1.256
529 1.338
530 1.352
531 1.372
532 1.376
533 1.362
534 1.344
535 1.349
536 1.391
537 1.36
538 1.361
539 1.372
540 1.342
541 1.316
542 1.346
543 1.363
544 1.376
545 1.389
546 1.393
547 1.395
548 1.38
549 1.387
550 1.405
551 1.399
552 1.405
553 1.404
554 1.401
555 1.417
556 1.411
557 1.383
558 1.368
559 1.351
560 1.334
561 1.368
562 1.381
563 1.367
564 1.374
565 1.379
566 1.368
567 1.37
568 1.396
569 1.386
570 1.383
571 1.37
572 1.374
573 1.428
574 1.437
575 1.425
576 1.406
577 1.413
578 1.417
579 1.399
580 1.41
581 1.424
582 1.432
583 1.448
584 1.45
585 1.441
586 1.416
587 1.415
588 1.435
589 1.382
590 1.324
591 1.389
592 1.423
593 1.427
594 1.427
595 1.432
596 1.427
597 1.438
598 1.438
599 1.426
600 1.43
601 1.423
602 1.407
603 1.415
604 1.442
605 1.449
606 1.442
607 1.438
608 1.433
609 1.421
610 1.415
611 1.416
612 1.42
613 1.415
614 1.398
615 1.398
616 1.389
617 1.364
618 1.387
619 1.408
620 1.418
621 1.433
622 1.424
623 1.416
624 1.41
625 1.398
626 1.395
627 1.423
628 1.442
629 1.444
630 1.429
631 1.423
632 1.404
633 1.423
634 1.416
635 1.422
636 1.423
637 1.42
638 1.441
639 1.441
640 1.414
641 1.404
642 1.399
643 1.415
644 1.412
645 1.415
646 1.404
647 1.407
648 1.418
649 1.415
650 1.374
651 1.424
652 1.432
653 1.413
654 1.402
655 1.381
656 1.291
657 1.187
658 1.315
659 1.38
660 1.385
661 1.398
662 1.407
663 1.403
664 1.388
665 1.392
666 1.397
667 1.39
668 1.387
669 1.397
670 1.394
671 1.39
672 1.384
673 1.381
674 1.379
675 1.378
676 1.376
677 1.375
678 1.374
679 1.373
680 1.372
681 1.371
682 1.371
683 1.37
684 1.37
685 1.37
686 1.37
687 1.37
688 1.371
689 1.374
690 1.381
691 1.384
692 1.378
693 1.374
694 1.377
695 1.37
696 1.369
697 1.374
698 1.356
699 1.373
700 1.378
701 1.36
702 1.352
703 1.358
704 1.365
705 1.38
706 1.371
707 1.356
708 1.358
709 1.346
710 1.338
711 1.344
712 1.326
713 1.321
714 1.325
715 1.323
716 1.318
717 1.325
718 1.324
719 1.307
720 1.308
721 1.311
722 1.312
723 1.311
724 1.317
725 1.315
726 1.304
727 1.308
728 1.306
729 1.283
730 1.278
731 1.302
732 1.299
733 1.299
734 1.3
735 1.301
736 1.287
737 1.284
738 1.283
739 1.255
740 1.257
741 1.25
742 1.242
743 1.261
744 1.28
745 1.267
746 1.281
747 1.277
748 1.282
749 1.275
750 1.261
