# Top-of-atmosphere (TOA) lunar irradiance from Miller and Turner (2009) by 10 nm increments
# First column wavelength (nm), second column TOA irradiance# Phase angle = 114
# Units = mW/m^2-micrometer

300 0.1169
310 0.1165
320 0.1766
330 0.2872
340 0.2587
350 0.2389
360 0.3153
370 0.3803
380 0.3315
390 0.392
400 0.5651
410 0.5902
420 0.6143
430 0.5424
440 0.6622
450 0.7878
460 0.8099
470 0.8182
480 0.8739
490 0.8514
500 0.8429
510 0.8542
520 0.8174
530 0.8754
540 0.869
550 0.9103
560 0.8643
570 0.8964
580 0.9143
590 0.8585
600 0.9277
610 0.9176
620 0.9204
630 0.9271
640 0.9177
650 0.8921
660 0.8996
670 0.9057
680 0.8913
690 0.8978
700 0.8956
710 0.8698
720 0.8508
730 0.8311
740 0.8178
750 0.8207
