# Top-of-atmosphere (TOA) lunar irradiance from Miller and Turner (2009) by 10 nm increments
# First column wavelength (nm), second column TOA irradiance# Phase angle = 15
# Units = mW/m^2-micrometer

300 0.0006287
310 0.0006297
320 0.0009591
330 0.001567
340 0.001418
350 0.001316
360 0.001745
370 0.002115
380 0.001852
390 0.002201
400 0.003188
410 0.003345
420 0.003498
430 0.003103
440 0.003806
450 0.00455
460 0.0047
470 0.004771
480 0.00512
490 0.005011
500 0.004985
510 0.005075
520 0.00488
530 0.005251
540 0.005237
550 0.005512
560 0.005258
570 0.00548
580 0.005616
590 0.005298
600 0.005752
610 0.005717
620 0.005761
630 0.005831
640 0.005799
650 0.005664
660 0.005739
670 0.005805
680 0.00574
690 0.005809
700 0.005822
710 0.005681
720 0.005583
730 0.00548
740 0.005418
750 0.005463
