# Top-of-atmosphere (TOA) lunar irradiance from Miller and Turner (2009) by 10 nm increments
# First column wavelength (nm), second column TOA irradiance# Phase angle = 84
# Units = mW/m^2-micrometer

300 0.0454
310 0.04528
320 0.06869
330 0.1118
340 0.1007
350 0.09309
360 0.123
370 0.1484
380 0.1294
390 0.1531
400 0.2209
410 0.2308
420 0.2404
430 0.2124
440 0.2595
450 0.3089
460 0.3177
470 0.3212
480 0.3433
490 0.3346
500 0.3315
510 0.3361
520 0.3219
530 0.3449
540 0.3426
550 0.3591
560 0.3411
570 0.354
580 0.3613
590 0.3395
600 0.3671
610 0.3633
620 0.3646
630 0.3675
640 0.364
650 0.354
660 0.3573
670 0.3599
680 0.3544
690 0.3572
700 0.3565
710 0.3465
720 0.3391
730 0.3315
740 0.3263
750 0.3277
