# Top-of-atmosphere (TOA) lunar irradiance from Miller and Turner (2009)
# First column wavelength (nm), second column TOA irradiance# Lunar phase angle: 74
# Irradiance units: mW/m^2-micrometer

300 0.02968
301 0.02207
302 0.0278
303 0.02657
304 0.03758
305 0.035
306 0.03574
307 0.03306
308 0.03845
309 0.03879
310 0.02962
311 0.03936
312 0.0467
313 0.04056
314 0.04401
315 0.04045
316 0.04165
317 0.03807
318 0.05302
319 0.04079
320 0.04496
321 0.05554
322 0.04407
323 0.04619
324 0.04308
325 0.05164
326 0.05784
327 0.06595
328 0.06404
329 0.05955
330 0.0732
331 0.06759
332 0.06694
333 0.06497
334 0.06225
335 0.0666
336 0.06789
337 0.05375
338 0.05902
339 0.06337
340 0.066
341 0.07291
342 0.06394
343 0.07115
344 0.07153
345 0.05162
346 0.07045
347 0.0654
348 0.06489
349 0.06767
350 0.06101
351 0.08064
352 0.07198
353 0.06448
354 0.07783
355 0.08283
356 0.07768
357 0.06946
358 0.0631
359 0.04712
360 0.08064
361 0.07607
362 0.06743
363 0.07711
364 0.07283
365 0.07861
366 0.09025
367 0.09609
368 0.09269
369 0.08271
370 0.09735
371 0.08633
372 0.09988
373 0.08253
374 0.07127
375 0.07273
376 0.08744
377 0.08583
378 0.1035
379 0.1111
380 0.08497
381 0.09951
382 0.09048
383 0.06491
384 0.05411
385 0.07849
386 0.08261
387 0.08367
388 0.08176
389 0.07865
390 0.1006
391 0.1029
392 0.1199
393 0.09068
394 0.03951
395 0.09148
396 0.1184
397 0.06294
398 0.07077
399 0.1349
400 0.1452
401 0.1459
402 0.1587
403 0.1612
404 0.158
405 0.1544
406 0.1501
407 0.1462
408 0.1483
409 0.1504
410 0.1518
411 0.1406
412 0.1464
413 0.1522
414 0.158
415 0.1587
416 0.1591
417 0.1612
418 0.158
419 0.158
420 0.1582
421 0.1621
422 0.1652
423 0.1596
424 0.1577
425 0.1616
426 0.1605
427 0.1599
428 0.154
429 0.154
430 0.1398
431 0.1167
432 0.1447
433 0.16
434 0.158
435 0.1547
436 0.1664
437 0.1758
438 0.1704
439 0.1639
440 0.1708
441 0.1784
442 0.1852
443 0.191
444 0.1916
445 0.1919
446 0.1888
447 0.1877
448 0.1988
449 0.2013
450 0.2035
451 0.2127
452 0.2139
453 0.2039
454 0.1989
455 0.2081
456 0.2097
457 0.2155
458 0.2158
459 0.2106
460 0.2094
461 0.2128
462 0.2164
463 0.2186
464 0.2163
465 0.2117
466 0.2118
467 0.2103
468 0.2093
469 0.2132
470 0.2118
471 0.2089
472 0.2142
473 0.221
474 0.2183
475 0.2233
476 0.2233
477 0.2204
478 0.2264
479 0.2265
480 0.2265
481 0.2256
482 0.2274
483 0.2255
484 0.2228
485 0.2203
486 0.2006
487 0.1897
488 0.2055
489 0.212
490 0.2209
491 0.2243
492 0.2166
493 0.2163
494 0.2191
495 0.2245
496 0.2248
497 0.2242
498 0.2226
499 0.2191
500 0.2189
501 0.2156
502 0.2115
503 0.2162
504 0.2205
505 0.2198
506 0.2281
507 0.2319
508 0.2287
509 0.2255
510 0.2221
511 0.2199
512 0.2244
513 0.2222
514 0.217
515 0.2145
516 0.218
517 0.2031
518 0.1912
519 0.1986
520 0.2128
521 0.2169
522 0.2211
523 0.2169
524 0.2209
525 0.2279
526 0.2256
527 0.2067
528 0.2119
529 0.2257
530 0.2281
531 0.2316
532 0.2323
533 0.2299
534 0.2269
535 0.2279
536 0.2348
537 0.2298
538 0.23
539 0.2317
540 0.2267
541 0.2224
542 0.2275
543 0.2304
544 0.2325
545 0.2348
546 0.2356
547 0.2359
548 0.2334
549 0.2347
550 0.2378
551 0.2368
552 0.2379
553 0.2377
554 0.2373
555 0.2399
556 0.2389
557 0.2343
558 0.2316
559 0.2289
560 0.226
561 0.2317
562 0.2341
563 0.2316
564 0.233
565 0.2338
566 0.232
567 0.2324
568 0.2367
569 0.235
570 0.2347
571 0.2325
572 0.2332
573 0.2424
574 0.2439
575 0.242
576 0.2387
577 0.2399
578 0.2406
579 0.2376
580 0.2396
581 0.242
582 0.2434
583 0.2461
584 0.2465
585 0.245
586 0.2408
587 0.2406
588 0.2441
589 0.235
590 0.2252
591 0.2363
592 0.2422
593 0.2429
594 0.2428
595 0.2438
596 0.243
597 0.2449
598 0.2449
599 0.2429
600 0.2437
601 0.2424
602 0.2398
603 0.2411
604 0.2458
605 0.2469
606 0.2458
607 0.2452
608 0.2444
609 0.2424
610 0.2413
611 0.2416
612 0.2423
613 0.2414
614 0.2386
615 0.2387
616 0.2371
617 0.2329
618 0.2368
619 0.2405
620 0.2423
621 0.2447
622 0.2433
623 0.242
624 0.2409
625 0.239
626 0.2384
627 0.2433
628 0.2465
629 0.2469
630 0.2443
631 0.2434
632 0.2402
633 0.2434
634 0.2423
635 0.2434
636 0.2435
637 0.2431
638 0.2467
639 0.2468
640 0.2421
641 0.2404
642 0.2397
643 0.2424
644 0.2419
645 0.2424
646 0.2406
647 0.2411
648 0.2431
649 0.2426
650 0.2356
651 0.2442
652 0.2457
653 0.2423
654 0.2406
655 0.237
656 0.2216
657 0.2038
658 0.2257
659 0.2369
660 0.2379
661 0.2401
662 0.2417
663 0.2411
664 0.2384
665 0.2393
666 0.2401
667 0.2389
668 0.2385
669 0.2402
670 0.2398
671 0.239
672 0.2381
673 0.2376
674 0.2373
675 0.237
676 0.2368
677 0.2366
678 0.2365
679 0.2363
680 0.2362
681 0.2361
682 0.236
683 0.236
684 0.236
685 0.236
686 0.2361
687 0.2361
688 0.2363
689 0.2368
690 0.2382
691 0.2387
692 0.2377
693 0.237
694 0.2375
695 0.2364
696 0.2363
697 0.2372
698 0.2341
699 0.2371
700 0.2379
701 0.2348
702 0.2334
703 0.2345
704 0.2358
705 0.2384
706 0.237
707 0.2342
708 0.2346
709 0.2327
710 0.2313
711 0.2323
712 0.2293
713 0.2285
714 0.2292
715 0.2288
716 0.2281
717 0.2292
718 0.2291
719 0.2262
720 0.2265
721 0.227
722 0.2272
723 0.2271
724 0.2282
725 0.2277
726 0.2259
727 0.2267
728 0.2264
729 0.2223
730 0.2215
731 0.2257
732 0.2253
733 0.2253
734 0.2254
735 0.2256
736 0.2233
737 0.2228
738 0.2226
739 0.2177
740 0.2182
741 0.2171
742 0.2156
743 0.219
744 0.2223
745 0.2201
746 0.2226
747 0.2219
748 0.2227
749 0.2216
750 0.2192
