# Top-of-atmosphere (TOA) lunar irradiance from Miller and Turner (2009) by 10 nm increments
# First column wavelength (nm), second column TOA irradiance# Phase angle = 122
# Units = mW/m^2-micrometer

300 0.1429
310 0.1425
320 0.216
330 0.3512
340 0.3163
350 0.292
360 0.3855
370 0.4649
380 0.4052
390 0.4791
400 0.6906
410 0.7211
420 0.7506
430 0.6626
440 0.8089
450 0.9623
460 0.9892
470 0.9993
480 1.067
490 1.04
500 1.029
510 1.043
520 0.9979
530 1.069
540 1.061
550 1.111
560 1.055
570 1.094
580 1.115
590 1.047
600 1.132
610 1.119
620 1.123
630 1.131
640 1.119
650 1.088
660 1.097
670 1.104
680 1.086
690 1.094
700 1.092
710 1.06
720 1.037
730 1.013
740 0.9964
750 0.9997
