# Top-of-atmosphere (TOA) lunar irradiance from Miller and Turner (2009)
# First column wavelength (nm), second column TOA irradiance# Lunar phase angle: 175
# Irradiance units: mW/m^2-micrometer

300 0.558
301 0.4148
302 0.5222
303 0.4988
304 0.7053
305 0.6567
306 0.6703
307 0.6198
308 0.7207
309 0.7267
310 0.5547
311 0.7368
312 0.8739
313 0.7588
314 0.8229
315 0.756
316 0.7782
317 0.7111
318 0.99
319 0.7612
320 0.8387
321 1.036
322 0.8215
323 0.8607
324 0.8025
325 0.9615
326 1.077
327 1.227
328 1.191
329 1.107
330 1.36
331 1.256
332 1.243
333 1.206
334 1.155
335 1.235
336 1.259
337 0.9964
338 1.094
339 1.174
340 1.222
341 1.349
342 1.183
343 1.316
344 1.323
345 0.9539
346 1.302
347 1.208
348 1.198
349 1.249
350 1.125
351 1.487
352 1.327
353 1.188
354 1.434
355 1.525
356 1.43
357 1.278
358 1.16
359 0.8662
360 1.482
361 1.397
362 1.238
363 1.415
364 1.336
365 1.442
366 1.655
367 1.761
368 1.698
369 1.515
370 1.782
371 1.58
372 1.827
373 1.509
374 1.303
375 1.329
376 1.597
377 1.567
378 1.889
379 2.027
380 1.55
381 1.814
382 1.649
383 1.183
384 0.9853
385 1.429
386 1.503
387 1.522
388 1.487
389 1.43
390 1.828
391 1.87
392 2.177
393 1.646
394 0.7168
395 1.659
396 2.146
397 1.141
398 1.282
399 2.443
400 2.627
401 2.639
402 2.871
403 2.915
404 2.855
405 2.79
406 2.711
407 2.64
408 2.677
409 2.714
410 2.737
411 2.535
412 2.638
413 2.741
414 2.845
415 2.856
416 2.863
417 2.899
418 2.841
419 2.839
420 2.841
421 2.911
422 2.966
423 2.864
424 2.829
425 2.898
426 2.878
427 2.865
428 2.759
429 2.757
430 2.502
431 2.089
432 2.588
433 2.86
434 2.823
435 2.764
436 2.971
437 3.138
438 3.041
439 2.924
440 3.046
441 3.179
442 3.3
443 3.402
444 3.412
445 3.415
446 3.358
447 3.337
448 3.533
449 3.578
450 3.615
451 3.778
452 3.796
453 3.619
454 3.527
455 3.69
456 3.716
457 3.818
458 3.821
459 3.728
460 3.706
461 3.765
462 3.826
463 3.864
464 3.822
465 3.738
466 3.74
467 3.712
468 3.693
469 3.761
470 3.734
471 3.681
472 3.774
473 3.892
474 3.843
475 3.928
476 3.928
477 3.876
478 3.979
479 3.979
480 3.978
481 3.96
482 3.991
483 3.957
484 3.907
485 3.862
486 3.516
487 3.322
488 3.598
489 3.712
490 3.865
491 3.922
492 3.787
493 3.78
494 3.827
495 3.921
496 3.924
497 3.912
498 3.883
499 3.821
500 3.817
501 3.757
502 3.685
503 3.765
504 3.838
505 3.824
506 3.967
507 4.031
508 3.974
509 3.917
510 3.857
511 3.817
512 3.894
513 3.854
514 3.763
515 3.718
516 3.776
517 3.518
518 3.31
519 3.437
520 3.681
521 3.752
522 3.823
523 3.748
524 3.817
525 3.935
526 3.894
527 3.567
528 3.654
529 3.891
530 3.932
531 3.991
532 4.001
533 3.959
534 3.906
535 3.92
536 4.038
537 3.949
538 3.952
539 3.98
540 3.893
541 3.818
542 3.903
543 3.951
544 3.987
545 4.024
546 4.036
547 4.04
548 3.995
549 4.017
550 4.067
551 4.049
552 4.066
553 4.062
554 4.052
555 4.096
556 4.078
557 3.997
558 3.95
559 3.901
560 3.851
561 3.947
562 3.986
563 3.943
564 3.964
565 3.977
566 3.945
567 3.949
568 4.021
569 3.992
570 3.984
571 3.946
572 3.955
573 4.111
574 4.134
575 4.101
576 4.043
577 4.062
578 4.072
579 4.019
580 4.052
581 4.091
582 4.113
583 4.157
584 4.163
585 4.135
586 4.064
587 4.058
588 4.116
589 3.961
590 3.795
591 3.98
592 4.077
593 4.089
594 4.085
595 4.101
596 4.085
597 4.116
598 4.113
599 4.078
600 4.09
601 4.068
602 4.022
603 4.042
604 4.119
605 4.137
606 4.117
607 4.104
608 4.09
609 4.054
610 4.035
611 4.039
612 4.049
613 4.032
614 3.985
615 3.984
616 3.955
617 3.884
618 3.947
619 4.009
620 4.036
621 4.075
622 4.05
623 4.027
624 4.007
625 3.974
626 3.962
627 4.043
628 4.095
629 4.1
630 4.055
631 4.039
632 3.983
633 4.035
634 4.015
635 4.031
636 4.032
637 4.024
638 4.082
639 4.082
640 4.003
641 3.974
642 3.96
643 4.004
644 3.993
645 4.001
646 3.969
647 3.976
648 4.007
649 3.998
650 3.881
651 4.021
652 4.044
653 3.987
654 3.957
655 3.897
656 3.642
657 3.348
658 3.707
659 3.888
660 3.904
661 3.939
662 3.964
663 3.952
664 3.906
665 3.919
666 3.93
667 3.91
668 3.901
669 3.928
670 3.92
671 3.906
672 3.889
673 3.879
674 3.873
675 3.868
676 3.863
677 3.858
678 3.854
679 3.85
680 3.847
681 3.844
682 3.841
683 3.839
684 3.838
685 3.837
686 3.836
687 3.836
688 3.836
689 3.843
690 3.865
691 3.872
692 3.853
693 3.841
694 3.848
695 3.828
696 3.825
697 3.838
698 3.787
699 3.834
700 3.845
701 3.793
702 3.77
703 3.787
704 3.806
705 3.846
706 3.822
707 3.776
708 3.781
709 3.749
710 3.724
711 3.74
712 3.689
713 3.676
714 3.685
715 3.678
716 3.665
717 3.682
718 3.678
719 3.631
720 3.633
721 3.641
722 3.643
723 3.639
724 3.655
725 3.646
726 3.616
727 3.627
728 3.621
729 3.554
730 3.54
731 3.606
732 3.598
733 3.596
734 3.597
735 3.599
736 3.562
737 3.552
738 3.548
739 3.468
740 3.474
741 3.455
742 3.43
743 3.482
744 3.534
745 3.498
746 3.536
747 3.523
748 3.536
749 3.516
750 3.477
