# Top-of-atmosphere (TOA) lunar irradiance from Miller and Turner (2009)
# First column wavelength (nm), second column TOA irradiance# Lunar phase angle: 64
# Irradiance units: mW/m^2-micrometer

300 0.01797
301 0.01336
302 0.01683
303 0.01608
304 0.02275
305 0.02119
306 0.02164
307 0.02002
308 0.02329
309 0.02349
310 0.01794
311 0.02384
312 0.02829
313 0.02458
314 0.02667
315 0.02451
316 0.02524
317 0.02307
318 0.03214
319 0.02472
320 0.02725
321 0.03367
322 0.02672
323 0.02801
324 0.02612
325 0.03131
326 0.03508
327 0.04
328 0.03884
329 0.03612
330 0.04441
331 0.04101
332 0.04062
333 0.03942
334 0.03778
335 0.04042
336 0.04121
337 0.03263
338 0.03583
339 0.03847
340 0.04007
341 0.04427
342 0.03883
343 0.04321
344 0.04344
345 0.03135
346 0.04279
347 0.03973
348 0.03942
349 0.04111
350 0.03707
351 0.049
352 0.04374
353 0.03919
354 0.0473
355 0.05035
356 0.04722
357 0.04222
358 0.03836
359 0.02865
360 0.04903
361 0.04626
362 0.04101
363 0.0469
364 0.0443
365 0.04782
366 0.0549
367 0.05846
368 0.05639
369 0.05033
370 0.05924
371 0.05254
372 0.06079
373 0.05023
374 0.04338
375 0.04427
376 0.05323
377 0.05226
378 0.063
379 0.06766
380 0.05174
381 0.0606
382 0.05511
383 0.03954
384 0.03296
385 0.04781
386 0.05033
387 0.05098
388 0.04982
389 0.04793
390 0.0613
391 0.06274
392 0.07307
393 0.05527
394 0.02408
395 0.05577
396 0.07217
397 0.03838
398 0.04316
399 0.08228
400 0.08853
401 0.08896
402 0.09681
403 0.09836
404 0.09636
405 0.0942
406 0.0916
407 0.08924
408 0.09052
409 0.09181
410 0.09262
411 0.08584
412 0.08936
413 0.09291
414 0.09648
415 0.09688
416 0.09715
417 0.09843
418 0.0965
419 0.09648
420 0.0966
421 0.09901
422 0.1009
423 0.09752
424 0.09637
425 0.09876
426 0.0981
427 0.09772
428 0.09413
429 0.09411
430 0.08544
431 0.07137
432 0.08847
433 0.09781
434 0.09658
435 0.09461
436 0.1017
437 0.1075
438 0.1042
439 0.1003
440 0.1045
441 0.1091
442 0.1133
443 0.1169
444 0.1173
445 0.1174
446 0.1155
447 0.1149
448 0.1217
449 0.1232
450 0.1246
451 0.1303
452 0.1309
453 0.1249
454 0.1218
455 0.1275
456 0.1284
457 0.132
458 0.1322
459 0.129
460 0.1283
461 0.1304
462 0.1326
463 0.1339
464 0.1326
465 0.1297
466 0.1298
467 0.1289
468 0.1283
469 0.1307
470 0.1299
471 0.1281
472 0.1314
473 0.1355
474 0.1339
475 0.1369
476 0.137
477 0.1352
478 0.1389
479 0.1389
480 0.139
481 0.1384
482 0.1396
483 0.1384
484 0.1368
485 0.1352
486 0.1232
487 0.1164
488 0.1261
489 0.1302
490 0.1356
491 0.1377
492 0.133
493 0.1328
494 0.1345
495 0.1379
496 0.1381
497 0.1377
498 0.1368
499 0.1346
500 0.1345
501 0.1325
502 0.13
503 0.1329
504 0.1356
505 0.1351
506 0.1402
507 0.1426
508 0.1406
509 0.1387
510 0.1366
511 0.1352
512 0.138
513 0.1367
514 0.1335
515 0.132
516 0.1341
517 0.125
518 0.1176
519 0.1222
520 0.131
521 0.1335
522 0.1361
523 0.1335
524 0.136
525 0.1403
526 0.1389
527 0.1273
528 0.1305
529 0.139
530 0.1405
531 0.1427
532 0.1431
533 0.1417
534 0.1398
535 0.1404
536 0.1447
537 0.1416
538 0.1417
539 0.1428
540 0.1397
541 0.1371
542 0.1402
543 0.142
544 0.1434
545 0.1448
546 0.1453
547 0.1455
548 0.1439
549 0.1448
550 0.1467
551 0.1461
552 0.1467
553 0.1467
554 0.1464
555 0.148
556 0.1475
557 0.1446
558 0.143
559 0.1413
560 0.1395
561 0.1431
562 0.1445
563 0.143
564 0.1439
565 0.1444
566 0.1433
567 0.1435
568 0.1462
569 0.1452
570 0.145
571 0.1437
572 0.1441
573 0.1498
574 0.1507
575 0.1496
576 0.1475
577 0.1483
578 0.1487
579 0.1469
580 0.1481
581 0.1496
582 0.1505
583 0.1522
584 0.1525
585 0.1515
586 0.149
587 0.1488
588 0.151
589 0.1454
590 0.1394
591 0.1462
592 0.1498
593 0.1503
594 0.1503
595 0.1509
596 0.1504
597 0.1516
598 0.1516
599 0.1504
600 0.1509
601 0.1501
602 0.1485
603 0.1493
604 0.1522
605 0.153
606 0.1523
607 0.1519
608 0.1514
609 0.1502
610 0.1495
611 0.1497
612 0.1502
613 0.1496
614 0.1479
615 0.148
616 0.147
617 0.1444
618 0.1468
619 0.1491
620 0.1502
621 0.1518
622 0.1509
623 0.1501
624 0.1494
625 0.1483
626 0.1479
627 0.151
628 0.153
629 0.1532
630 0.1516
631 0.1511
632 0.1491
633 0.1511
634 0.1504
635 0.1511
636 0.1512
637 0.1509
638 0.1532
639 0.1533
640 0.1504
641 0.1493
642 0.1489
643 0.1506
644 0.1503
645 0.1506
646 0.1495
647 0.1498
648 0.151
649 0.1508
650 0.1464
651 0.1518
652 0.1527
653 0.1507
654 0.1496
655 0.1474
656 0.1378
657 0.1267
658 0.1404
659 0.1473
660 0.148
661 0.1494
662 0.1504
663 0.15
664 0.1483
665 0.1489
666 0.1494
667 0.1487
668 0.1484
669 0.1495
670 0.1492
671 0.1488
672 0.1482
673 0.1479
674 0.1477
675 0.1476
676 0.1475
677 0.1474
678 0.1473
679 0.1472
680 0.1471
681 0.1471
682 0.1471
683 0.1471
684 0.1471
685 0.1471
686 0.1471
687 0.1472
688 0.1473
689 0.1476
690 0.1485
691 0.1488
692 0.1482
693 0.1478
694 0.1481
695 0.1474
696 0.1474
697 0.1479
698 0.146
699 0.1479
700 0.1484
701 0.1465
702 0.1456
703 0.1464
704 0.1472
705 0.1488
706 0.1479
707 0.1462
708 0.1465
709 0.1453
710 0.1444
711 0.1451
712 0.1432
713 0.1427
714 0.1431
715 0.1429
716 0.1425
717 0.1432
718 0.1431
719 0.1414
720 0.1415
721 0.1419
722 0.142
723 0.1419
724 0.1426
725 0.1423
726 0.1412
727 0.1417
728 0.1415
729 0.139
730 0.1385
731 0.1411
732 0.1409
733 0.1409
734 0.141
735 0.1411
736 0.1397
737 0.1394
738 0.1393
739 0.1362
740 0.1365
741 0.1359
742 0.1349
743 0.137
744 0.1391
745 0.1378
746 0.1394
747 0.1389
748 0.1395
749 0.1388
750 0.1373
