# Top-of-atmosphere (TOA) lunar irradiance from Miller and Turner (2009) by 10 nm increments
# First column wavelength (nm), second column TOA irradiance# Phase angle = 101
# Units = mW/m^2-micrometer

300 0.0817
310 0.08145
320 0.1235
330 0.2009
340 0.1809
350 0.1671
360 0.2206
370 0.2661
380 0.232
390 0.2744
400 0.3956
410 0.4132
420 0.4302
430 0.3799
440 0.4638
450 0.5519
460 0.5675
470 0.5734
480 0.6125
490 0.5968
500 0.591
510 0.599
520 0.5733
530 0.614
540 0.6096
550 0.6387
560 0.6065
570 0.6291
580 0.6417
590 0.6027
600 0.6514
610 0.6444
620 0.6464
630 0.6512
640 0.6447
650 0.6268
660 0.6322
670 0.6366
680 0.6265
690 0.6312
700 0.6297
710 0.6117
720 0.5984
730 0.5846
740 0.5754
750 0.5774
