# Top-of-atmosphere (TOA) lunar irradiance from Miller and Turner (2009) by 10 nm increments
# First column wavelength (nm), second column TOA irradiance# Phase angle = 104
# Units = mW/m^2-micrometer

300 0.08896
310 0.08868
320 0.1345
330 0.2187
340 0.197
350 0.1819
360 0.2402
370 0.2897
380 0.2526
390 0.2987
400 0.4306
410 0.4498
420 0.4683
430 0.4135
440 0.5048
450 0.6007
460 0.6176
470 0.624
480 0.6666
490 0.6495
500 0.6431
510 0.6517
520 0.6238
530 0.6681
540 0.6632
550 0.6948
560 0.6598
570 0.6844
580 0.6981
590 0.6556
600 0.7086
610 0.7009
620 0.7031
630 0.7084
640 0.7012
650 0.6817
660 0.6876
670 0.6923
680 0.6813
690 0.6864
700 0.6848
710 0.6651
720 0.6506
730 0.6357
740 0.6256
750 0.6278
