# Top-of-atmosphere (TOA) lunar irradiance from Miller and Turner (2009)
# First column wavelength (nm), second column TOA irradiance# Lunar phase angle: 138
# Irradiance units: mW/m^2-micrometer

300 0.2096
301 0.1559
302 0.1963
303 0.1875
304 0.2653
305 0.247
306 0.2522
307 0.2333
308 0.2713
309 0.2736
310 0.2089
311 0.2775
312 0.3292
313 0.2859
314 0.3102
315 0.285
316 0.2934
317 0.2682
318 0.3735
319 0.2872
320 0.3166
321 0.391
322 0.3102
323 0.3251
324 0.3032
325 0.3633
326 0.4069
327 0.4639
328 0.4504
329 0.4187
330 0.5147
331 0.4752
332 0.4705
333 0.4566
334 0.4374
335 0.4679
336 0.4769
337 0.3775
338 0.4145
339 0.4449
340 0.4634
341 0.5118
342 0.4488
343 0.4993
344 0.5019
345 0.3621
346 0.4941
347 0.4586
348 0.455
349 0.4744
350 0.4277
351 0.5652
352 0.5044
353 0.4518
354 0.5453
355 0.5802
356 0.544
357 0.4864
358 0.4418
359 0.3298
360 0.5644
361 0.5323
362 0.4718
363 0.5395
364 0.5095
365 0.5498
366 0.6311
367 0.6719
368 0.648
369 0.5781
370 0.6804
371 0.6032
372 0.6978
373 0.5765
374 0.4978
375 0.5079
376 0.6105
377 0.5992
378 0.7222
379 0.7754
380 0.5929
381 0.6943
382 0.6312
383 0.4528
384 0.3773
385 0.5473
386 0.5759
387 0.5833
388 0.5698
389 0.5481
390 0.7008
391 0.7172
392 0.8351
393 0.6315
394 0.2751
395 0.6369
396 0.824
397 0.4381
398 0.4925
399 0.9388
400 1.01
401 1.015
402 1.104
403 1.121
404 1.098
405 1.073
406 1.043
407 1.016
408 1.031
409 1.045
410 1.054
411 0.9767
412 1.017
413 1.057
414 1.097
415 1.101
416 1.104
417 1.118
418 1.096
419 1.096
420 1.097
421 1.124
422 1.146
423 1.107
424 1.093
425 1.12
426 1.112
427 1.108
428 1.067
429 1.067
430 0.9681
431 0.8084
432 1.002
433 1.107
434 1.093
435 1.071
436 1.151
437 1.216
438 1.179
439 1.134
440 1.181
441 1.233
442 1.281
443 1.32
444 1.324
445 1.326
446 1.304
447 1.296
448 1.373
449 1.39
450 1.405
451 1.469
452 1.476
453 1.408
454 1.372
455 1.436
456 1.446
457 1.487
458 1.488
459 1.452
460 1.444
461 1.467
462 1.491
463 1.506
464 1.49
465 1.458
466 1.459
467 1.448
468 1.442
469 1.468
470 1.458
471 1.438
472 1.474
473 1.521
474 1.502
475 1.536
476 1.536
477 1.516
478 1.556
479 1.557
480 1.557
481 1.55
482 1.563
483 1.55
484 1.531
485 1.513
486 1.378
487 1.302
488 1.411
489 1.456
490 1.516
491 1.539
492 1.486
493 1.484
494 1.503
495 1.54
496 1.541
497 1.537
498 1.526
499 1.502
500 1.5
501 1.478
502 1.449
503 1.481
504 1.51
505 1.505
506 1.562
507 1.587
508 1.565
509 1.543
510 1.52
511 1.504
512 1.535
513 1.52
514 1.484
515 1.467
516 1.49
517 1.388
518 1.307
519 1.357
520 1.454
521 1.482
522 1.51
523 1.481
524 1.509
525 1.556
526 1.54
527 1.411
528 1.446
529 1.54
530 1.556
531 1.58
532 1.584
533 1.568
534 1.547
535 1.553
536 1.601
537 1.566
538 1.567
539 1.579
540 1.544
541 1.515
542 1.549
543 1.569
544 1.583
545 1.598
546 1.603
547 1.605
548 1.588
549 1.597
550 1.617
551 1.61
552 1.617
553 1.616
554 1.613
555 1.63
556 1.624
557 1.592
558 1.574
559 1.554
560 1.535
561 1.574
562 1.589
563 1.572
564 1.581
565 1.587
566 1.574
567 1.576
568 1.606
569 1.594
570 1.591
571 1.577
572 1.581
573 1.643
574 1.653
575 1.64
576 1.617
577 1.625
578 1.629
579 1.609
580 1.622
581 1.638
582 1.647
583 1.665
584 1.668
585 1.657
586 1.629
587 1.627
588 1.651
589 1.589
590 1.523
591 1.597
592 1.637
593 1.642
594 1.641
595 1.647
596 1.641
597 1.654
598 1.653
599 1.64
600 1.645
601 1.636
602 1.618
603 1.627
604 1.658
605 1.666
606 1.658
607 1.653
608 1.648
609 1.634
610 1.626
611 1.628
612 1.633
613 1.626
614 1.607
615 1.608
616 1.596
617 1.568
618 1.594
619 1.619
620 1.631
621 1.647
622 1.637
623 1.628
624 1.62
625 1.607
626 1.603
627 1.636
628 1.657
629 1.66
630 1.642
631 1.636
632 1.614
633 1.635
634 1.627
635 1.634
636 1.635
637 1.632
638 1.656
639 1.656
640 1.624
641 1.613
642 1.608
643 1.626
644 1.622
645 1.626
646 1.613
647 1.616
648 1.629
649 1.626
650 1.579
651 1.636
652 1.645
653 1.623
654 1.611
655 1.587
656 1.483
657 1.364
658 1.511
659 1.585
660 1.591
661 1.606
662 1.616
663 1.612
664 1.594
665 1.599
666 1.604
667 1.596
668 1.593
669 1.605
670 1.601
671 1.596
672 1.59
673 1.586
674 1.584
675 1.582
676 1.58
677 1.579
678 1.577
679 1.576
680 1.575
681 1.574
682 1.574
683 1.573
684 1.573
685 1.573
686 1.573
687 1.573
688 1.574
689 1.577
690 1.586
691 1.59
692 1.582
693 1.577
694 1.581
695 1.573
696 1.572
697 1.578
698 1.557
699 1.577
700 1.582
701 1.561
702 1.552
703 1.559
704 1.567
705 1.584
706 1.574
707 1.556
708 1.558
709 1.545
710 1.536
711 1.542
712 1.522
713 1.517
714 1.521
715 1.518
716 1.513
717 1.52
718 1.519
719 1.5
720 1.501
721 1.505
722 1.506
723 1.505
724 1.512
725 1.509
726 1.496
727 1.501
728 1.499
729 1.472
730 1.466
731 1.494
732 1.491
733 1.49
734 1.491
735 1.492
736 1.477
737 1.473
738 1.472
739 1.439
740 1.442
741 1.435
742 1.424
743 1.447
744 1.468
745 1.454
746 1.47
747 1.465
748 1.47
749 1.463
750 1.446
