# Top-of-atmosphere (TOA) lunar irradiance from Miller and Turner (2009) by 10 nm increments
# First column wavelength (nm), second column TOA irradiance# Phase angle = 87
# Units = mW/m^2-micrometer

300 0.05095
310 0.05081
320 0.07706
330 0.1254
340 0.113
350 0.1044
360 0.1379
370 0.1664
380 0.1451
390 0.1717
400 0.2476
410 0.2587
420 0.2694
430 0.238
440 0.2906
450 0.346
460 0.3558
470 0.3597
480 0.3843
490 0.3746
500 0.3711
510 0.3762
520 0.3602
530 0.3859
540 0.3833
550 0.4017
560 0.3816
570 0.3959
580 0.404
590 0.3795
600 0.4104
610 0.4061
620 0.4075
630 0.4107
640 0.4067
650 0.3956
660 0.3991
670 0.402
680 0.3958
690 0.3988
700 0.3981
710 0.3868
720 0.3785
730 0.3699
740 0.3642
750 0.3656
