# Top-of-atmosphere (TOA) lunar irradiance from Miller and Turner (2009)
# First column wavelength (nm), second column TOA irradiance# Lunar phase angle: 148
# Irradiance units: mW/m^2-micrometer

300 0.2721
301 0.2023
302 0.2548
303 0.2434
304 0.3442
305 0.3206
306 0.3272
307 0.3027
308 0.352
309 0.355
310 0.271
311 0.36
312 0.4271
313 0.3709
314 0.4023
315 0.3697
316 0.3806
317 0.3478
318 0.4843
319 0.3725
320 0.4105
321 0.507
322 0.4022
323 0.4215
324 0.393
325 0.471
326 0.5275
327 0.6013
328 0.5837
329 0.5427
330 0.667
331 0.6157
332 0.6097
333 0.5916
334 0.5667
335 0.6062
336 0.6178
337 0.4891
338 0.5369
339 0.5763
340 0.6001
341 0.6628
342 0.5812
343 0.6466
344 0.6499
345 0.4688
346 0.6398
347 0.5938
348 0.5891
349 0.6142
350 0.5536
351 0.7316
352 0.6529
353 0.5848
354 0.7057
355 0.7508
356 0.704
357 0.6294
358 0.5716
359 0.4268
360 0.7302
361 0.6887
362 0.6104
363 0.6978
364 0.659
365 0.7111
366 0.8162
367 0.8689
368 0.838
369 0.7476
370 0.8797
371 0.78
372 0.9022
373 0.7453
374 0.6435
375 0.6566
376 0.7892
377 0.7745
378 0.9335
379 1.002
380 0.7663
381 0.8972
382 0.8156
383 0.585
384 0.4875
385 0.707
386 0.744
387 0.7535
388 0.7361
389 0.7079
390 0.9052
391 0.9263
392 1.078
393 0.8156
394 0.3552
395 0.8225
396 1.064
397 0.5656
398 0.6359
399 1.212
400 1.304
401 1.31
402 1.425
403 1.447
404 1.417
405 1.385
406 1.347
407 1.311
408 1.33
409 1.349
410 1.36
411 1.26
412 1.312
413 1.363
414 1.415
415 1.421
416 1.424
417 1.442
418 1.414
419 1.413
420 1.414
421 1.449
422 1.477
423 1.427
424 1.41
425 1.444
426 1.434
427 1.428
428 1.375
429 1.375
430 1.248
431 1.042
432 1.291
433 1.427
434 1.409
435 1.38
436 1.483
437 1.567
438 1.519
439 1.46
440 1.522
441 1.588
442 1.649
443 1.7
444 1.705
445 1.707
446 1.679
447 1.669
448 1.767
449 1.79
450 1.809
451 1.891
452 1.9
453 1.812
454 1.766
455 1.848
456 1.861
457 1.913
458 1.915
459 1.868
460 1.858
461 1.888
462 1.918
463 1.938
464 1.917
465 1.875
466 1.877
467 1.863
468 1.854
469 1.888
470 1.875
471 1.849
472 1.896
473 1.955
474 1.931
475 1.974
476 1.974
477 1.948
478 2.001
479 2.001
480 2.001
481 1.992
482 2.008
483 1.991
484 1.967
485 1.944
486 1.77
487 1.673
488 1.812
489 1.87
490 1.947
491 1.977
492 1.909
493 1.905
494 1.929
495 1.977
496 1.979
497 1.973
498 1.959
499 1.928
500 1.926
501 1.897
502 1.86
503 1.901
504 1.938
505 1.932
506 2.004
507 2.037
508 2.009
509 1.98
510 1.95
511 1.93
512 1.969
513 1.95
514 1.904
515 1.881
516 1.911
517 1.781
518 1.676
519 1.74
520 1.864
521 1.9
522 1.937
523 1.899
524 1.934
525 1.994
526 1.974
527 1.808
528 1.853
529 1.974
530 1.995
531 2.025
532 2.03
533 2.009
534 1.983
535 1.99
536 2.051
537 2.006
538 2.007
539 2.022
540 1.978
541 1.94
542 1.984
543 2.009
544 2.027
545 2.047
546 2.053
547 2.055
548 2.033
549 2.044
550 2.07
551 2.061
552 2.07
553 2.069
554 2.064
555 2.087
556 2.078
557 2.037
558 2.014
559 1.989
560 1.964
561 2.013
562 2.033
563 2.011
564 2.023
565 2.03
566 2.013
567 2.016
568 2.053
569 2.039
570 2.035
571 2.016
572 2.021
573 2.101
574 2.113
575 2.096
576 2.067
577 2.077
578 2.083
579 2.056
580 2.073
581 2.094
582 2.105
583 2.128
584 2.132
585 2.118
586 2.081
587 2.079
588 2.109
589 2.03
590 1.945
591 2.04
592 2.09
593 2.097
594 2.095
595 2.104
596 2.096
597 2.112
598 2.111
599 2.094
600 2.1
601 2.089
602 2.066
603 2.077
604 2.116
605 2.126
606 2.116
607 2.11
608 2.103
609 2.085
610 2.075
611 2.078
612 2.083
613 2.075
614 2.051
615 2.051
616 2.036
617 2
618 2.033
619 2.065
620 2.079
621 2.1
622 2.087
623 2.076
624 2.066
625 2.049
626 2.043
627 2.085
628 2.112
629 2.115
630 2.093
631 2.084
632 2.056
633 2.083
634 2.074
635 2.082
636 2.083
637 2.079
638 2.109
639 2.11
640 2.069
641 2.055
642 2.048
643 2.071
644 2.066
645 2.07
646 2.054
647 2.058
648 2.074
649 2.07
650 2.01
651 2.082
652 2.095
653 2.066
654 2.05
655 2.02
656 1.888
657 1.736
658 1.922
659 2.017
660 2.025
661 2.044
662 2.057
663 2.051
664 2.028
665 2.034
666 2.041
667 2.031
668 2.026
669 2.041
670 2.037
671 2.03
672 2.022
673 2.017
674 2.014
675 2.011
676 2.009
677 2.007
678 2.005
679 2.004
680 2.002
681 2.001
682 2
683 1.999
684 1.999
685 1.999
686 1.999
687 1.999
688 1.999
689 2.003
690 2.015
691 2.019
692 2.01
693 2.004
694 2.008
695 1.997
696 1.996
697 2.003
698 1.977
699 2.002
700 2.008
701 1.982
702 1.97
703 1.979
704 1.989
705 2.01
706 1.998
707 1.975
708 1.978
709 1.961
710 1.948
711 1.957
712 1.931
713 1.924
714 1.929
715 1.926
716 1.919
717 1.928
718 1.927
719 1.902
720 1.904
721 1.908
722 1.91
723 1.908
724 1.917
725 1.913
726 1.897
727 1.903
728 1.9
729 1.866
730 1.858
731 1.893
732 1.889
733 1.889
734 1.89
735 1.891
736 1.872
737 1.867
738 1.865
739 1.823
740 1.827
741 1.817
742 1.804
743 1.832
744 1.86
745 1.841
746 1.861
747 1.855
748 1.862
749 1.852
750 1.831
