# Top-of-atmosphere (TOA) lunar irradiance from Miller and Turner (2009) by 10 nm increments
# First column wavelength (nm), second column TOA irradiance# Phase angle = 96
# Units = mW/m^2-micrometer

300 0.06963
310 0.06942
320 0.1053
330 0.1713
340 0.1543
350 0.1425
360 0.1882
370 0.227
380 0.1979
390 0.2341
400 0.3375
410 0.3526
420 0.3671
430 0.3242
440 0.3959
450 0.4711
460 0.4844
470 0.4895
480 0.5229
490 0.5096
500 0.5046
510 0.5115
520 0.4896
530 0.5244
540 0.5207
550 0.5456
560 0.5181
570 0.5375
580 0.5484
590 0.515
600 0.5567
610 0.5508
620 0.5525
630 0.5567
640 0.5512
650 0.536
660 0.5406
670 0.5444
680 0.5358
690 0.5399
700 0.5387
710 0.5233
720 0.512
730 0.5003
740 0.4924
750 0.4942
