# Top-of-atmosphere (TOA) lunar irradiance from Miller and Turner (2009)
# First column wavelength (nm), second column TOA irradiance# Lunar phase angle: 129
# Irradiance units: mW/m^2-micrometer

300 0.1688
301 0.1255
302 0.1581
303 0.1511
304 0.2136
305 0.199
306 0.2031
307 0.1879
308 0.2185
309 0.2204
310 0.1683
311 0.2236
312 0.2652
313 0.2303
314 0.2499
315 0.2296
316 0.2364
317 0.2161
318 0.3009
319 0.2314
320 0.2551
321 0.3151
322 0.25
323 0.262
324 0.2443
325 0.2928
326 0.3279
327 0.3738
328 0.363
329 0.3375
330 0.4148
331 0.3829
332 0.3792
333 0.368
334 0.3525
335 0.3771
336 0.3844
337 0.3043
338 0.3341
339 0.3586
340 0.3735
341 0.4125
342 0.3618
343 0.4025
344 0.4046
345 0.2919
346 0.3984
347 0.3698
348 0.3668
349 0.3825
350 0.3448
351 0.4557
352 0.4067
353 0.3643
354 0.4397
355 0.4679
356 0.4387
357 0.3922
358 0.3563
359 0.266
360 0.4551
361 0.4293
362 0.3805
363 0.4351
364 0.4109
365 0.4434
366 0.509
367 0.5419
368 0.5227
369 0.4663
370 0.5488
371 0.4866
372 0.5629
373 0.4651
374 0.4016
375 0.4098
376 0.4925
377 0.4834
378 0.5827
379 0.6256
380 0.4784
381 0.5602
382 0.5093
383 0.3653
384 0.3045
385 0.4416
386 0.4647
387 0.4707
388 0.4598
389 0.4423
390 0.5656
391 0.5788
392 0.6739
393 0.5097
394 0.222
395 0.5141
396 0.6651
397 0.3536
398 0.3975
399 0.7578
400 0.8151
401 0.819
402 0.8911
403 0.9051
404 0.8866
405 0.8665
406 0.8424
407 0.8205
408 0.8321
409 0.8438
410 0.8511
411 0.7886
412 0.8208
413 0.8532
414 0.8858
415 0.8893
416 0.8916
417 0.9032
418 0.8853
419 0.885
420 0.8859
421 0.9077
422 0.9253
423 0.8938
424 0.883
425 0.9047
426 0.8985
427 0.8949
428 0.8618
429 0.8615
430 0.782
431 0.653
432 0.8093
433 0.8946
434 0.8832
435 0.865
436 0.93
437 0.9825
438 0.9525
439 0.9159
440 0.9545
441 0.9964
442 1.035
443 1.067
444 1.07
445 1.071
446 1.054
447 1.047
448 1.109
449 1.124
450 1.135
451 1.187
452 1.193
453 1.138
454 1.109
455 1.161
456 1.169
457 1.201
458 1.203
459 1.174
460 1.167
461 1.186
462 1.205
463 1.218
464 1.205
465 1.179
466 1.18
467 1.171
468 1.165
469 1.187
470 1.179
471 1.163
472 1.192
473 1.23
474 1.214
475 1.242
476 1.242
477 1.226
478 1.259
479 1.259
480 1.259
481 1.254
482 1.264
483 1.253
484 1.238
485 1.224
486 1.114
487 1.053
488 1.141
489 1.177
490 1.226
491 1.245
492 1.202
493 1.2
494 1.215
495 1.246
496 1.247
497 1.243
498 1.234
499 1.215
500 1.214
501 1.195
502 1.173
503 1.198
504 1.222
505 1.218
506 1.264
507 1.284
508 1.267
509 1.249
510 1.23
511 1.217
512 1.242
513 1.23
514 1.201
515 1.187
516 1.206
517 1.124
518 1.058
519 1.098
520 1.177
521 1.2
522 1.223
523 1.199
524 1.221
525 1.259
526 1.246
527 1.142
528 1.17
529 1.247
530 1.26
531 1.279
532 1.283
533 1.269
534 1.253
535 1.258
536 1.296
537 1.268
538 1.269
539 1.278
540 1.251
541 1.227
542 1.255
543 1.27
544 1.282
545 1.294
546 1.299
547 1.3
548 1.286
549 1.293
550 1.31
551 1.304
552 1.31
553 1.309
554 1.306
555 1.321
556 1.315
557 1.289
558 1.275
559 1.259
560 1.243
561 1.275
562 1.288
563 1.274
564 1.281
565 1.286
566 1.275
567 1.277
568 1.301
569 1.292
570 1.289
571 1.278
572 1.281
573 1.332
574 1.339
575 1.329
576 1.31
577 1.317
578 1.321
579 1.304
580 1.315
581 1.328
582 1.335
583 1.35
584 1.352
585 1.343
586 1.321
587 1.319
588 1.338
589 1.288
590 1.234
591 1.295
592 1.327
593 1.331
594 1.33
595 1.336
596 1.331
597 1.341
598 1.341
599 1.33
600 1.334
601 1.327
602 1.312
603 1.319
604 1.345
605 1.351
606 1.344
607 1.341
608 1.336
609 1.325
610 1.319
611 1.321
612 1.324
613 1.319
614 1.304
615 1.304
616 1.295
617 1.272
618 1.293
619 1.313
620 1.323
621 1.336
622 1.328
623 1.321
624 1.315
625 1.304
626 1.3
627 1.327
628 1.345
629 1.347
630 1.332
631 1.327
632 1.309
633 1.327
634 1.321
635 1.326
636 1.327
637 1.324
638 1.344
639 1.344
640 1.318
641 1.309
642 1.305
643 1.32
644 1.316
645 1.319
646 1.309
647 1.312
648 1.322
649 1.32
650 1.282
651 1.328
652 1.336
653 1.318
654 1.308
655 1.288
656 1.204
657 1.107
658 1.226
659 1.287
660 1.292
661 1.304
662 1.313
663 1.309
664 1.294
665 1.299
666 1.303
667 1.296
668 1.294
669 1.303
670 1.301
671 1.297
672 1.291
673 1.288
674 1.287
675 1.285
676 1.284
677 1.282
678 1.281
679 1.28
680 1.28
681 1.279
682 1.279
683 1.278
684 1.278
685 1.278
686 1.278
687 1.278
688 1.279
689 1.281
690 1.289
691 1.292
692 1.286
693 1.282
694 1.285
695 1.278
696 1.278
697 1.282
698 1.265
699 1.281
700 1.285
701 1.269
702 1.261
703 1.267
704 1.274
705 1.287
706 1.28
707 1.265
708 1.267
709 1.256
710 1.248
711 1.254
712 1.237
713 1.233
714 1.236
715 1.234
716 1.23
717 1.236
718 1.235
719 1.22
720 1.221
721 1.224
722 1.225
723 1.224
724 1.229
725 1.227
726 1.217
727 1.221
728 1.219
729 1.197
730 1.192
731 1.215
732 1.213
733 1.212
734 1.213
735 1.214
736 1.201
737 1.198
738 1.197
739 1.171
740 1.173
741 1.167
742 1.159
743 1.177
744 1.195
745 1.183
746 1.196
747 1.192
748 1.196
749 1.19
750 1.177
