# Top-of-atmosphere (TOA) lunar irradiance from Miller and Turner (2009) by 10 nm increments
# First column wavelength (nm), second column TOA irradiance# Phase angle = 100
# Units = mW/m^2-micrometer

300 0.07941
310 0.07917
320 0.12
330 0.1953
340 0.1759
350 0.1624
360 0.2145
370 0.2587
380 0.2256
390 0.2668
400 0.3846
410 0.4017
420 0.4182
430 0.3693
440 0.4509
450 0.5366
460 0.5517
470 0.5575
480 0.5955
490 0.5803
500 0.5746
510 0.5823
520 0.5574
530 0.597
540 0.5927
550 0.621
560 0.5897
570 0.6117
580 0.624
590 0.586
600 0.6334
610 0.6266
620 0.6285
630 0.6332
640 0.6269
650 0.6095
660 0.6147
670 0.619
680 0.6092
690 0.6138
700 0.6124
710 0.5948
720 0.5819
730 0.5685
740 0.5595
750 0.5616
