# Top-of-atmosphere (TOA) lunar irradiance from Miller and Turner (2009)
# First column wavelength (nm), second column TOA irradiance# Lunar phase angle: 121
# Irradiance units: mW/m^2-micrometer

300 0.1396
301 0.1038
302 0.1307
303 0.1249
304 0.1766
305 0.1645
306 0.1679
307 0.1553
308 0.1806
309 0.1822
310 0.1391
311 0.1848
312 0.2193
313 0.1904
314 0.2066
315 0.1898
316 0.1955
317 0.1787
318 0.2488
319 0.1913
320 0.2109
321 0.2605
322 0.2067
323 0.2166
324 0.202
325 0.2421
326 0.2711
327 0.3091
328 0.3001
329 0.279
330 0.343
331 0.3167
332 0.3136
333 0.3043
334 0.2915
335 0.3118
336 0.3179
337 0.2516
338 0.2763
339 0.2966
340 0.3089
341 0.3412
342 0.2992
343 0.3329
344 0.3346
345 0.2414
346 0.3295
347 0.3058
348 0.3034
349 0.3164
350 0.2852
351 0.3769
352 0.3364
353 0.3013
354 0.3636
355 0.3869
356 0.3628
357 0.3244
358 0.2947
359 0.22
360 0.3765
361 0.3551
362 0.3147
363 0.3599
364 0.3399
365 0.3668
366 0.421
367 0.4483
368 0.4323
369 0.3857
370 0.454
371 0.4025
372 0.4656
373 0.3847
374 0.3322
375 0.339
376 0.4074
377 0.3999
378 0.482
379 0.5175
380 0.3957
381 0.4634
382 0.4213
383 0.3022
384 0.2519
385 0.3653
386 0.3845
387 0.3894
388 0.3804
389 0.3659
390 0.4679
391 0.4788
392 0.5576
393 0.4217
394 0.1837
395 0.4253
396 0.5503
397 0.2925
398 0.3289
399 0.627
400 0.6744
401 0.6776
402 0.7373
403 0.7489
404 0.7336
405 0.717
406 0.697
407 0.6789
408 0.6885
409 0.6982
410 0.7043
411 0.6525
412 0.6792
413 0.706
414 0.733
415 0.7359
416 0.7378
417 0.7474
418 0.7326
419 0.7323
420 0.7331
421 0.7512
422 0.7658
423 0.7396
424 0.7308
425 0.7487
426 0.7436
427 0.7406
428 0.7132
429 0.713
430 0.6472
431 0.5405
432 0.6698
433 0.7404
434 0.7309
435 0.7159
436 0.7697
437 0.8131
438 0.7884
439 0.7581
440 0.79
441 0.8247
442 0.8564
443 0.8829
444 0.8857
445 0.8868
446 0.8723
447 0.867
448 0.9182
449 0.93
450 0.9398
451 0.9825
452 0.9875
453 0.9416
454 0.9181
455 0.9607
456 0.9677
457 0.9946
458 0.9955
459 0.9716
460 0.9661
461 0.9818
462 0.9978
463 1.008
464 0.9973
465 0.9758
466 0.9765
467 0.9694
468 0.9648
469 0.9826
470 0.976
471 0.9624
472 0.9869
473 1.018
474 1.005
475 1.028
476 1.028
477 1.015
478 1.042
479 1.042
480 1.042
481 1.038
482 1.046
483 1.038
484 1.025
485 1.013
486 0.9226
487 0.8721
488 0.9446
489 0.9748
490 1.015
491 1.031
492 0.9953
493 0.9937
494 1.006
495 1.031
496 1.033
497 1.03
498 1.022
499 1.006
500 1.005
501 0.9899
502 0.971
503 0.9924
504 1.012
505 1.009
506 1.047
507 1.064
508 1.049
509 1.034
510 1.019
511 1.008
512 1.029
513 1.019
514 0.9948
515 0.983
516 0.9987
517 0.9307
518 0.8759
519 0.9098
520 0.9746
521 0.9935
522 1.013
523 0.9931
524 1.011
525 1.043
526 1.032
527 0.946
528 0.9694
529 1.033
530 1.044
531 1.059
532 1.062
533 1.052
534 1.038
535 1.042
536 1.074
537 1.05
538 1.051
539 1.059
540 1.036
541 1.016
542 1.039
543 1.052
544 1.062
545 1.072
546 1.076
547 1.077
548 1.065
549 1.071
550 1.085
551 1.08
552 1.085
553 1.084
554 1.082
555 1.094
556 1.09
557 1.068
558 1.056
559 1.043
560 1.03
561 1.056
562 1.067
563 1.055
564 1.062
565 1.065
566 1.057
567 1.058
568 1.078
569 1.07
570 1.068
571 1.059
572 1.061
573 1.103
574 1.11
575 1.101
576 1.086
577 1.091
578 1.094
579 1.08
580 1.09
581 1.1
582 1.107
583 1.119
584 1.121
585 1.113
586 1.094
587 1.093
588 1.109
589 1.068
590 1.023
591 1.073
592 1.1
593 1.103
594 1.102
595 1.107
596 1.103
597 1.111
598 1.111
599 1.102
600 1.105
601 1.1
602 1.088
603 1.093
604 1.114
605 1.12
606 1.114
607 1.111
608 1.108
609 1.098
610 1.093
611 1.095
612 1.098
613 1.093
614 1.081
615 1.081
616 1.073
617 1.054
618 1.072
619 1.089
620 1.096
621 1.107
622 1.101
623 1.095
624 1.09
625 1.081
626 1.078
627 1.1
628 1.115
629 1.116
630 1.104
631 1.1
632 1.085
633 1.1
634 1.095
635 1.099
636 1.1
637 1.098
638 1.114
639 1.114
640 1.093
641 1.085
642 1.082
643 1.094
644 1.092
645 1.094
646 1.085
647 1.088
648 1.096
649 1.094
650 1.063
651 1.101
652 1.108
653 1.092
654 1.084
655 1.068
656 0.9986
657 0.9183
658 1.017
659 1.067
660 1.071
661 1.081
662 1.088
663 1.086
664 1.073
665 1.077
666 1.081
667 1.075
668 1.073
669 1.081
670 1.079
671 1.075
672 1.071
673 1.068
674 1.067
675 1.066
676 1.065
677 1.064
678 1.063
679 1.062
680 1.061
681 1.061
682 1.06
683 1.06
684 1.06
685 1.06
686 1.06
687 1.06
688 1.061
689 1.063
690 1.069
691 1.071
692 1.066
693 1.063
694 1.066
695 1.06
696 1.06
697 1.063
698 1.05
699 1.063
700 1.066
701 1.052
702 1.046
703 1.051
704 1.057
705 1.068
706 1.062
707 1.049
708 1.051
709 1.042
710 1.036
711 1.04
712 1.026
713 1.023
714 1.026
715 1.024
716 1.021
717 1.025
718 1.025
719 1.012
720 1.013
721 1.015
722 1.016
723 1.015
724 1.02
725 1.018
726 1.01
727 1.013
728 1.011
729 0.9931
730 0.9893
731 1.008
732 1.006
733 1.006
734 1.006
735 1.007
736 0.9969
737 0.9944
738 0.9935
739 0.9716
740 0.9734
741 0.9684
742 0.9616
743 0.9765
744 0.9913
745 0.9815
746 0.9924
747 0.989
748 0.9928
749 0.9875
750 0.9767
