# Top-of-atmosphere (TOA) lunar irradiance from Miller and Turner (2009) by 10 nm increments
# First column wavelength (nm), second column TOA irradiance# Phase angle = 20
# Units = mW/m^2-micrometer

300 0.0009041
310 0.0009059
320 0.00138
330 0.002257
340 0.002043
350 0.001897
360 0.002517
370 0.003051
380 0.002674
390 0.003179
400 0.004606
410 0.004835
420 0.00506
430 0.00449
440 0.005511
450 0.006591
460 0.006811
470 0.006917
480 0.007426
490 0.007273
500 0.007238
510 0.007373
520 0.007093
530 0.007635
540 0.007619
550 0.008023
560 0.007657
570 0.007983
580 0.008185
590 0.007726
600 0.008393
610 0.008345
620 0.008413
630 0.00852
640 0.008477
650 0.008284
660 0.008397
670 0.008498
680 0.008406
690 0.008512
700 0.008536
710 0.008333
720 0.008193
730 0.008046
740 0.007959
750 0.008028
