# Top-of-atmosphere (TOA) lunar irradiance from Miller and Turner (2009) by 10 nm increments
# First column wavelength (nm), second column TOA irradiance# Phase angle = 118
# Units = mW/m^2-micrometer

300 0.1295
310 0.1291
320 0.1956
330 0.3182
340 0.2866
350 0.2646
360 0.3493
370 0.4212
380 0.3672
390 0.4342
400 0.6259
410 0.6536
420 0.6803
430 0.6006
440 0.7332
450 0.8723
460 0.8967
470 0.9059
480 0.9675
490 0.9425
500 0.9331
510 0.9455
520 0.9048
530 0.9689
540 0.9618
550 1.007
560 0.9565
570 0.992
580 1.012
590 0.95
600 1.027
610 1.015
620 1.018
630 1.026
640 1.015
650 0.9869
660 0.9952
670 1.002
680 0.9858
690 0.993
700 0.9905
710 0.9619
720 0.9408
730 0.9191
740 0.9043
750 0.9074
