# Top-of-atmosphere (TOA) lunar irradiance from Miller and Turner (2009) by 10 nm increments
# First column wavelength (nm), second column TOA irradiance# Phase angle = 13
# Units = mW/m^2-micrometer

300 0.0005437
310 0.0005444
320 0.000829
330 0.001355
340 0.001226
350 0.001137
360 0.001507
370 0.001826
380 0.001599
390 0.0019
400 0.002751
410 0.002886
420 0.003018
430 0.002677
440 0.003283
450 0.003923
460 0.004052
470 0.004112
480 0.004412
490 0.004318
500 0.004294
510 0.004371
520 0.004202
530 0.004521
540 0.004508
550 0.004744
560 0.004524
570 0.004714
580 0.00483
590 0.004556
600 0.004946
610 0.004914
620 0.004951
630 0.00501
640 0.004982
650 0.004865
660 0.004928
670 0.004984
680 0.004927
690 0.004986
700 0.004996
710 0.004874
720 0.004789
730 0.0047
740 0.004646
750 0.004683
