# Top-of-atmosphere (TOA) lunar irradiance from Miller and Turner (2009)
# First column wavelength (nm), second column TOA irradiance# Lunar phase angle: 68
# Irradiance units: mW/m^2-micrometer

300 0.02226
301 0.01655
302 0.02085
303 0.01992
304 0.02818
305 0.02625
306 0.0268
307 0.0248
308 0.02884
309 0.0291
310 0.02222
311 0.02952
312 0.03503
313 0.03043
314 0.03302
315 0.03035
316 0.03125
317 0.02857
318 0.03979
319 0.03061
320 0.03374
321 0.04168
322 0.03307
323 0.03467
324 0.03233
325 0.03876
326 0.04342
327 0.04951
328 0.04807
329 0.0447
330 0.05495
331 0.05075
332 0.05026
333 0.04878
334 0.04674
335 0.05001
336 0.05098
337 0.04037
338 0.04432
339 0.04759
340 0.04957
341 0.05476
342 0.04803
343 0.05345
344 0.05373
345 0.03877
346 0.05293
347 0.04913
348 0.04875
349 0.05084
350 0.04584
351 0.06059
352 0.05409
353 0.04846
354 0.05849
355 0.06225
356 0.05838
357 0.0522
358 0.04742
359 0.03542
360 0.06061
361 0.05718
362 0.05069
363 0.05797
364 0.05475
365 0.0591
366 0.06785
367 0.07225
368 0.06969
369 0.06219
370 0.0732
371 0.06492
372 0.07511
373 0.06207
374 0.0536
375 0.0547
376 0.06576
377 0.06456
378 0.07783
379 0.08358
380 0.06392
381 0.07486
382 0.06807
383 0.04884
384 0.04071
385 0.05905
386 0.06216
387 0.06296
388 0.06152
389 0.05918
390 0.07569
391 0.07748
392 0.09023
393 0.06825
394 0.02974
395 0.06886
396 0.08911
397 0.04738
398 0.05328
399 0.1016
400 0.1093
401 0.1098
402 0.1195
403 0.1214
404 0.1189
405 0.1163
406 0.113
407 0.1101
408 0.1117
409 0.1133
410 0.1143
411 0.1059
412 0.1103
413 0.1146
414 0.119
415 0.1195
416 0.1199
417 0.1214
418 0.119
419 0.119
420 0.1192
421 0.1221
422 0.1245
423 0.1203
424 0.1189
425 0.1218
426 0.121
427 0.1205
428 0.1161
429 0.1161
430 0.1054
431 0.08801
432 0.1091
433 0.1206
434 0.1191
435 0.1166
436 0.1254
437 0.1325
438 0.1285
439 0.1236
440 0.1288
441 0.1345
442 0.1397
443 0.144
444 0.1445
445 0.1447
446 0.1424
447 0.1415
448 0.1499
449 0.1519
450 0.1535
451 0.1605
452 0.1613
453 0.1539
454 0.15
455 0.157
456 0.1582
457 0.1626
458 0.1628
459 0.1589
460 0.158
461 0.1606
462 0.1633
463 0.165
464 0.1633
465 0.1598
466 0.1599
467 0.1588
468 0.158
469 0.161
470 0.1599
471 0.1577
472 0.1618
473 0.1669
474 0.1648
475 0.1686
476 0.1686
477 0.1665
478 0.171
479 0.171
480 0.1711
481 0.1704
482 0.1718
483 0.1704
484 0.1683
485 0.1664
486 0.1516
487 0.1433
488 0.1552
489 0.1602
490 0.1669
491 0.1695
492 0.1637
493 0.1634
494 0.1655
495 0.1697
496 0.1699
497 0.1694
498 0.1682
499 0.1656
500 0.1655
501 0.163
502 0.1599
503 0.1635
504 0.1667
505 0.1662
506 0.1725
507 0.1753
508 0.1729
509 0.1705
510 0.168
511 0.1663
512 0.1697
513 0.1681
514 0.1642
515 0.1622
516 0.1649
517 0.1536
518 0.1446
519 0.1502
520 0.161
521 0.1641
522 0.1673
523 0.1641
524 0.1672
525 0.1724
526 0.1707
527 0.1564
528 0.1603
529 0.1708
530 0.1727
531 0.1753
532 0.1758
533 0.174
534 0.1718
535 0.1725
536 0.1778
537 0.1739
538 0.1741
539 0.1754
540 0.1717
541 0.1684
542 0.1723
543 0.1744
544 0.1761
545 0.1778
546 0.1784
547 0.1787
548 0.1767
549 0.1778
550 0.1801
551 0.1794
552 0.1802
553 0.1801
554 0.1797
555 0.1817
556 0.181
557 0.1775
558 0.1755
559 0.1734
560 0.1712
561 0.1756
562 0.1774
563 0.1755
564 0.1766
565 0.1772
566 0.1758
567 0.1761
568 0.1794
569 0.1782
570 0.1779
571 0.1763
572 0.1768
573 0.1838
574 0.1849
575 0.1835
576 0.181
577 0.1819
578 0.1824
579 0.1801
580 0.1817
581 0.1835
582 0.1846
583 0.1866
584 0.187
585 0.1858
586 0.1827
587 0.1825
588 0.1852
589 0.1783
590 0.1709
591 0.1793
592 0.1837
593 0.1843
594 0.1842
595 0.185
596 0.1844
597 0.1859
598 0.1858
599 0.1843
600 0.1849
601 0.184
602 0.182
603 0.183
604 0.1866
605 0.1875
606 0.1866
607 0.1861
608 0.1856
609 0.184
610 0.1832
611 0.1835
612 0.184
613 0.1833
614 0.1812
615 0.1813
616 0.18
617 0.1769
618 0.1798
619 0.1827
620 0.184
621 0.1859
622 0.1848
623 0.1839
624 0.183
625 0.1816
626 0.1811
627 0.1849
628 0.1873
629 0.1876
630 0.1857
631 0.185
632 0.1825
633 0.185
634 0.1841
635 0.185
636 0.1851
637 0.1848
638 0.1875
639 0.1876
640 0.184
641 0.1828
642 0.1822
643 0.1843
644 0.1839
645 0.1843
646 0.1829
647 0.1833
648 0.1848
649 0.1845
650 0.1792
651 0.1857
652 0.1868
653 0.1843
654 0.183
655 0.1803
656 0.1686
657 0.155
658 0.1717
659 0.1802
660 0.181
661 0.1827
662 0.1839
663 0.1834
664 0.1814
665 0.1821
666 0.1827
667 0.1818
668 0.1815
669 0.1828
670 0.1825
671 0.1819
672 0.1812
673 0.1808
674 0.1806
675 0.1804
676 0.1803
677 0.1801
678 0.18
679 0.1799
680 0.1798
681 0.1798
682 0.1797
683 0.1797
684 0.1797
685 0.1797
686 0.1798
687 0.1799
688 0.1799
689 0.1804
690 0.1814
691 0.1819
692 0.181
693 0.1805
694 0.181
695 0.1801
696 0.18
697 0.1807
698 0.1784
699 0.1807
700 0.1813
701 0.1789
702 0.1779
703 0.1787
704 0.1797
705 0.1817
706 0.1806
707 0.1786
708 0.1789
709 0.1774
710 0.1763
711 0.1771
712 0.1748
713 0.1742
714 0.1747
715 0.1745
716 0.1739
717 0.1748
718 0.1747
719 0.1725
720 0.1727
721 0.1731
722 0.1733
723 0.1732
724 0.174
725 0.1737
726 0.1723
727 0.1729
728 0.1727
729 0.1696
730 0.169
731 0.1722
732 0.1719
733 0.1719
734 0.172
735 0.1722
736 0.1704
737 0.17
738 0.1699
739 0.1662
740 0.1665
741 0.1657
742 0.1646
743 0.1671
744 0.1697
745 0.1681
746 0.1699
747 0.1694
748 0.1701
749 0.1692
750 0.1674
