# Top-of-atmosphere (TOA) lunar irradiance from Miller and Turner (2009)
# First column wavelength (nm), second column TOA irradiance# Lunar phase angle: 18
# Irradiance units: mW/m^2-micrometer

300 0.0007818
301 0.0005816
302 0.0007327
303 0.0007005
304 0.0009913
305 0.0009237
306 0.0009435
307 0.0008732
308 0.001016
309 0.001025
310 0.0007832
311 0.001041
312 0.001236
313 0.001074
314 0.001166
315 0.001071
316 0.001104
317 0.001009
318 0.001406
319 0.001082
320 0.001193
321 0.001475
322 0.001171
323 0.001228
324 0.001145
325 0.001373
326 0.001539
327 0.001755
328 0.001705
329 0.001586
330 0.001951
331 0.001802
332 0.001785
333 0.001733
334 0.001661
335 0.001778
336 0.001814
337 0.001436
338 0.001578
339 0.001695
340 0.001766
341 0.001951
342 0.001712
343 0.001906
344 0.001917
345 0.001384
346 0.001889
347 0.001754
348 0.001741
349 0.001817
350 0.001639
351 0.002167
352 0.001935
353 0.001734
354 0.002094
355 0.002229
356 0.002091
357 0.001871
358 0.0017
359 0.00127
360 0.002174
361 0.002052
362 0.00182
363 0.002082
364 0.001967
365 0.002124
366 0.002439
367 0.002598
368 0.002507
369 0.002238
370 0.002635
371 0.002338
372 0.002706
373 0.002237
374 0.001932
375 0.001973
376 0.002372
377 0.00233
378 0.002809
379 0.003018
380 0.002309
381 0.002705
382 0.002461
383 0.001766
384 0.001473
385 0.002137
386 0.00225
387 0.00228
388 0.002229
389 0.002145
390 0.002744
391 0.00281
392 0.003273
393 0.002477
394 0.001079
395 0.002501
396 0.003237
397 0.001722
398 0.001937
399 0.003694
400 0.003975
401 0.003996
402 0.00435
403 0.004421
404 0.004333
405 0.004237
406 0.004121
407 0.004016
408 0.004075
409 0.004134
410 0.004172
411 0.003868
412 0.004028
413 0.004189
414 0.004352
415 0.004371
416 0.004385
417 0.004444
418 0.004358
419 0.004359
420 0.004365
421 0.004475
422 0.004565
423 0.004411
424 0.00436
425 0.00447
426 0.004441
427 0.004426
428 0.004264
429 0.004265
430 0.003873
431 0.003236
432 0.004013
433 0.004438
434 0.004384
435 0.004296
436 0.004621
437 0.004884
438 0.004738
439 0.004558
440 0.004753
441 0.004964
442 0.005157
443 0.005319
444 0.005339
445 0.005349
446 0.005264
447 0.005234
448 0.005547
449 0.00562
450 0.005683
451 0.005944
452 0.005977
453 0.005702
454 0.005562
455 0.005824
456 0.005869
457 0.006035
458 0.006044
459 0.005902
460 0.005872
461 0.00597
462 0.006071
463 0.006135
464 0.006074
465 0.005946
466 0.005953
467 0.005912
468 0.005887
469 0.005999
470 0.005962
471 0.005882
472 0.006034
473 0.006228
474 0.006154
475 0.006296
476 0.0063
477 0.006221
478 0.006391
479 0.006397
480 0.0064
481 0.006376
482 0.006431
483 0.00638
484 0.006305
485 0.006238
486 0.005682
487 0.005374
488 0.005824
489 0.006013
490 0.006266
491 0.006364
492 0.006149
493 0.006142
494 0.006224
495 0.006381
496 0.006391
497 0.006376
498 0.006334
499 0.006237
500 0.006235
501 0.006143
502 0.006029
503 0.006165
504 0.00629
505 0.006272
506 0.006512
507 0.006621
508 0.006533
509 0.006444
510 0.00635
511 0.006288
512 0.006421
513 0.00636
514 0.006215
515 0.006144
516 0.006246
517 0.005823
518 0.005483
519 0.005698
520 0.006107
521 0.006229
522 0.006352
523 0.006233
524 0.006351
525 0.006553
526 0.00649
527 0.005949
528 0.0061
529 0.0065
530 0.006573
531 0.006677
532 0.006699
533 0.006633
534 0.006549
535 0.006579
536 0.006783
537 0.006638
538 0.006647
539 0.0067
540 0.006558
541 0.006436
542 0.006586
543 0.006672
544 0.006737
545 0.006806
546 0.006832
547 0.006842
548 0.006772
549 0.006814
550 0.006904
551 0.006879
552 0.006913
553 0.006911
554 0.0069
555 0.00698
556 0.006955
557 0.006822
558 0.006748
559 0.006669
560 0.006589
561 0.006758
562 0.00683
563 0.00676
564 0.006803
565 0.00683
566 0.006779
567 0.006793
568 0.006922
569 0.006877
570 0.006868
571 0.006808
572 0.006829
573 0.007104
574 0.007148
575 0.007097
576 0.007002
577 0.00704
578 0.007063
579 0.006977
580 0.00704
581 0.007113
582 0.007157
583 0.007238
584 0.007255
585 0.007212
586 0.007092
587 0.007088
588 0.007195
589 0.006929
590 0.006644
591 0.006974
592 0.007148
593 0.007174
594 0.007173
595 0.007207
596 0.007184
597 0.007244
598 0.007246
599 0.007189
600 0.007216
601 0.007181
602 0.007107
603 0.007148
604 0.007289
605 0.007327
606 0.007296
607 0.007279
608 0.00726
609 0.007202
610 0.007173
611 0.007186
612 0.007209
613 0.007185
614 0.007105
615 0.00711
616 0.007064
617 0.006942
618 0.00706
619 0.007176
620 0.007231
621 0.007307
622 0.007267
623 0.007232
624 0.007201
625 0.007146
626 0.007131
627 0.007282
628 0.007381
629 0.007395
630 0.007321
631 0.007296
632 0.007202
633 0.007301
634 0.007271
635 0.007306
636 0.007313
637 0.007304
638 0.007415
639 0.007421
640 0.007282
641 0.007235
642 0.007215
643 0.007301
644 0.007287
645 0.007307
646 0.007254
647 0.007273
648 0.007334
649 0.007323
650 0.007115
651 0.007377
652 0.007424
653 0.007327
654 0.007276
655 0.007171
656 0.006707
657 0.006171
658 0.006838
659 0.007178
660 0.007211
661 0.007282
662 0.007333
663 0.007317
664 0.007239
665 0.007267
666 0.007294
667 0.007262
668 0.007251
669 0.007307
670 0.007297
671 0.007278
672 0.007252
673 0.007238
674 0.007233
675 0.007228
676 0.007224
677 0.007221
678 0.007219
679 0.007217
680 0.007216
681 0.007217
682 0.007217
683 0.007219
684 0.007222
685 0.007225
686 0.00723
687 0.007235
688 0.007241
689 0.00726
690 0.007306
691 0.007325
692 0.007295
693 0.007277
694 0.007297
695 0.007264
696 0.007265
697 0.007294
698 0.007202
699 0.007297
700 0.007325
701 0.007232
702 0.007193
703 0.00723
704 0.007272
705 0.007354
706 0.007314
707 0.007233
708 0.007248
709 0.00719
710 0.007149
711 0.007184
712 0.007093
713 0.007073
714 0.007095
715 0.007087
716 0.007068
717 0.007106
718 0.007104
719 0.007018
720 0.007028
721 0.007048
722 0.007058
723 0.007056
724 0.007092
725 0.007081
726 0.007028
727 0.007054
728 0.007047
729 0.006923
730 0.0069
731 0.007034
732 0.007025
733 0.007026
734 0.007034
735 0.007043
736 0.006975
737 0.006961
738 0.006958
739 0.006808
740 0.006824
741 0.006792
742 0.006748
743 0.006856
744 0.006964
745 0.006899
746 0.006979
747 0.006958
748 0.006989
749 0.006955
750 0.006882
