# Top-of-atmosphere (TOA) lunar irradiance from Miller and Turner (2009)
# First column wavelength (nm), second column TOA irradiance# Lunar phase angle: 171
# Irradiance units: mW/m^2-micrometer

300 0.5
301 0.3717
302 0.4679
303 0.447
304 0.6321
305 0.5885
306 0.6007
307 0.5555
308 0.6459
309 0.6513
310 0.4972
311 0.6604
312 0.7833
313 0.6801
314 0.7377
315 0.6777
316 0.6976
317 0.6375
318 0.8875
319 0.6824
320 0.7519
321 0.9287
322 0.7366
323 0.7718
324 0.7196
325 0.8622
326 0.9655
327 1.1
328 1.068
329 0.9929
330 1.22
331 1.126
332 1.115
333 1.082
334 1.036
335 1.108
336 1.129
337 0.8938
338 0.981
339 1.053
340 1.096
341 1.211
342 1.061
343 1.181
344 1.187
345 0.8558
346 1.168
347 1.084
348 1.075
349 1.121
350 1.01
351 1.334
352 1.191
353 1.066
354 1.287
355 1.369
356 1.283
357 1.147
358 1.042
359 0.7775
360 1.33
361 1.254
362 1.111
363 1.271
364 1.2
365 1.294
366 1.486
367 1.581
368 1.525
369 1.36
370 1.6
371 1.419
372 1.641
373 1.355
374 1.17
375 1.193
376 1.434
377 1.407
378 1.696
379 1.821
380 1.392
381 1.629
382 1.481
383 1.062
384 0.885
385 1.283
386 1.35
387 1.367
388 1.335
389 1.284
390 1.642
391 1.68
392 1.956
393 1.479
394 0.644
395 1.491
396 1.928
397 1.025
398 1.152
399 2.195
400 2.361
401 2.372
402 2.58
403 2.62
404 2.566
405 2.507
406 2.437
407 2.373
408 2.406
409 2.439
410 2.46
411 2.279
412 2.371
413 2.464
414 2.558
415 2.567
416 2.573
417 2.606
418 2.554
419 2.553
420 2.555
421 2.617
422 2.667
423 2.576
424 2.544
425 2.606
426 2.588
427 2.577
428 2.481
429 2.479
430 2.25
431 1.879
432 2.328
433 2.572
434 2.539
435 2.486
436 2.672
437 2.823
438 2.736
439 2.63
440 2.74
441 2.86
442 2.969
443 3.06
444 3.07
445 3.073
446 3.022
447 3.003
448 3.179
449 3.219
450 3.253
451 3.4
452 3.416
453 3.257
454 3.174
455 3.321
456 3.344
457 3.437
458 3.439
459 3.356
460 3.336
461 3.389
462 3.444
463 3.478
464 3.44
465 3.365
466 3.367
467 3.342
468 3.325
469 3.386
470 3.362
471 3.315
472 3.398
473 3.504
474 3.46
475 3.538
476 3.537
477 3.49
478 3.583
479 3.584
480 3.583
481 3.567
482 3.595
483 3.564
484 3.519
485 3.479
486 3.167
487 2.993
488 3.241
489 3.344
490 3.482
491 3.534
492 3.412
493 3.405
494 3.448
495 3.533
496 3.536
497 3.525
498 3.499
499 3.443
500 3.439
501 3.386
502 3.321
503 3.393
504 3.459
505 3.447
506 3.576
507 3.633
508 3.582
509 3.531
510 3.477
511 3.44
512 3.51
513 3.475
514 3.393
515 3.352
516 3.405
517 3.172
518 2.984
519 3.099
520 3.319
521 3.383
522 3.447
523 3.38
524 3.442
525 3.548
526 3.511
527 3.217
528 3.295
529 3.509
530 3.546
531 3.599
532 3.609
533 3.571
534 3.523
535 3.536
536 3.643
537 3.563
538 3.565
539 3.591
540 3.512
541 3.444
542 3.522
543 3.565
544 3.597
545 3.631
546 3.642
547 3.645
548 3.605
549 3.625
550 3.67
551 3.654
552 3.669
553 3.666
554 3.657
555 3.697
556 3.681
557 3.607
558 3.566
559 3.522
560 3.476
561 3.563
562 3.598
563 3.559
564 3.579
565 3.591
566 3.561
567 3.566
568 3.631
569 3.604
570 3.597
571 3.563
572 3.571
573 3.713
574 3.733
575 3.703
576 3.651
577 3.668
578 3.678
579 3.63
580 3.66
581 3.695
582 3.715
583 3.755
584 3.761
585 3.736
586 3.671
587 3.666
588 3.719
589 3.578
590 3.429
591 3.596
592 3.684
593 3.694
594 3.691
595 3.705
596 3.691
597 3.719
598 3.717
599 3.686
600 3.696
601 3.676
602 3.635
603 3.654
604 3.723
605 3.739
606 3.721
607 3.71
608 3.697
609 3.665
610 3.647
611 3.652
612 3.66
613 3.645
614 3.602
615 3.602
616 3.576
617 3.512
618 3.569
619 3.625
620 3.65
621 3.685
622 3.662
623 3.642
624 3.624
625 3.594
626 3.583
627 3.656
628 3.704
629 3.708
630 3.668
631 3.653
632 3.603
633 3.65
634 3.632
635 3.647
636 3.648
637 3.64
638 3.693
639 3.693
640 3.622
641 3.595
642 3.583
643 3.623
644 3.613
645 3.62
646 3.591
647 3.598
648 3.626
649 3.618
650 3.513
651 3.639
652 3.66
653 3.609
654 3.581
655 3.527
656 3.296
657 3.031
658 3.356
659 3.52
660 3.534
661 3.566
662 3.588
663 3.578
664 3.537
665 3.548
666 3.559
667 3.54
668 3.532
669 3.557
670 3.549
671 3.537
672 3.522
673 3.513
674 3.508
675 3.503
676 3.498
677 3.494
678 3.491
679 3.487
680 3.484
681 3.482
682 3.48
683 3.478
684 3.477
685 3.476
686 3.475
687 3.475
688 3.475
689 3.482
690 3.501
691 3.508
692 3.491
693 3.48
694 3.487
695 3.469
696 3.466
697 3.478
698 3.432
699 3.474
700 3.485
701 3.438
702 3.417
703 3.432
704 3.449
705 3.486
706 3.464
707 3.423
708 3.428
709 3.398
710 3.376
711 3.39
712 3.345
713 3.333
714 3.341
715 3.335
716 3.323
717 3.338
718 3.335
719 3.292
720 3.294
721 3.301
722 3.304
723 3.3
724 3.315
725 3.307
726 3.28
727 3.29
728 3.284
729 3.224
730 3.211
731 3.271
732 3.264
733 3.262
734 3.263
735 3.265
736 3.231
737 3.222
738 3.219
739 3.147
740 3.152
741 3.135
742 3.112
743 3.16
744 3.207
745 3.175
746 3.209
747 3.197
748 3.209
749 3.191
750 3.155
