# Top-of-atmosphere (TOA) lunar irradiance from Miller and Turner (2009) by 10 nm increments
# First column wavelength (nm), second column TOA irradiance# Phase angle = 6
# Units = mW/m^2-micrometer

300 0.0003381
310 0.000338
320 0.0005141
330 0.0008387
340 0.0007578
350 0.000702
360 0.0009296
370 0.001125
380 0.0009835
390 0.001167
400 0.001687
410 0.001767
420 0.001846
430 0.001635
440 0.002002
450 0.002389
460 0.002464
470 0.002497
480 0.002675
490 0.002615
500 0.002597
510 0.00264
520 0.002534
530 0.002722
540 0.002711
550 0.002849
560 0.002713
570 0.002823
580 0.002888
590 0.002721
600 0.002949
610 0.002926
620 0.002944
630 0.002975
640 0.002954
650 0.002881
660 0.002914
670 0.002943
680 0.002906
690 0.002936
700 0.002938
710 0.002862
720 0.002809
730 0.002752
740 0.002717
750 0.002735
