# Top-of-atmosphere (TOA) lunar irradiance from Miller and Turner (2009) by 10 nm increments
# First column wavelength (nm), second column TOA irradiance# Phase angle = 16
# Units = mW/m^2-micrometer

300 0.0006761
310 0.0006772
320 0.001032
330 0.001686
340 0.001526
350 0.001416
360 0.001878
370 0.002276
380 0.001994
390 0.002369
400 0.003431
410 0.0036
420 0.003766
430 0.003341
440 0.004099
450 0.0049
460 0.005062
470 0.005139
480 0.005515
490 0.005399
500 0.005371
510 0.005469
520 0.005259
530 0.005659
540 0.005645
550 0.005942
560 0.005669
570 0.005908
580 0.006055
590 0.005713
600 0.006204
610 0.006166
620 0.006214
630 0.00629
640 0.006256
650 0.006111
660 0.006193
670 0.006265
680 0.006195
690 0.00627
700 0.006285
710 0.006134
720 0.006028
730 0.005918
740 0.005851
750 0.0059
