# Top-of-atmosphere (TOA) lunar irradiance from Miller and Turner (2009)
# First column wavelength (nm), second column TOA irradiance# Lunar phase angle: 160
# Irradiance units: mW/m^2-micrometer

300 0.3727
301 0.2771
302 0.3488
303 0.3333
304 0.4713
305 0.4389
306 0.448
307 0.4143
308 0.4817
309 0.4858
310 0.3709
311 0.4926
312 0.5844
313 0.5075
314 0.5504
315 0.5057
316 0.5206
317 0.4758
318 0.6624
319 0.5094
320 0.5613
321 0.6933
322 0.5499
323 0.5762
324 0.5373
325 0.6438
326 0.721
327 0.8219
328 0.7978
329 0.7416
330 0.9114
331 0.8414
332 0.833
333 0.8082
334 0.7742
335 0.828
336 0.8439
337 0.668
338 0.7332
339 0.787
340 0.8195
341 0.905
342 0.7935
343 0.8827
344 0.8872
345 0.64
346 0.8733
347 0.8104
348 0.8039
349 0.8381
350 0.7555
351 0.9982
352 0.8907
353 0.7978
354 0.9626
355 1.024
356 0.9602
357 0.8583
358 0.7795
359 0.582
360 0.9956
361 0.939
362 0.8321
363 0.9513
364 0.8983
365 0.9693
366 1.112
367 1.184
368 1.142
369 1.019
370 1.199
371 1.063
372 1.229
373 1.015
374 0.8766
375 0.8943
376 1.075
377 1.055
378 1.271
379 1.365
380 1.043
381 1.222
382 1.11
383 0.7964
384 0.6636
385 0.9624
386 1.013
387 1.025
388 1.002
389 0.9633
390 1.232
391 1.26
392 1.467
393 1.109
394 0.4832
395 1.119
396 1.447
397 0.7691
398 0.8647
399 1.648
400 1.772
401 1.78
402 1.937
403 1.967
404 1.927
405 1.883
406 1.83
407 1.782
408 1.807
409 1.832
410 1.848
411 1.712
412 1.782
413 1.852
414 1.922
415 1.929
416 1.934
417 1.959
418 1.92
419 1.919
420 1.92
421 1.967
422 2.005
423 1.937
424 1.913
425 1.96
426 1.946
427 1.938
428 1.866
429 1.865
430 1.693
431 1.413
432 1.751
433 1.935
434 1.91
435 1.871
436 2.011
437 2.124
438 2.059
439 1.98
440 2.063
441 2.153
442 2.235
443 2.304
444 2.311
445 2.314
446 2.276
447 2.261
448 2.395
449 2.425
450 2.45
451 2.561
452 2.574
453 2.454
454 2.392
455 2.503
456 2.52
457 2.59
458 2.592
459 2.529
460 2.515
461 2.555
462 2.596
463 2.622
464 2.594
465 2.538
466 2.539
467 2.52
468 2.508
469 2.554
470 2.536
471 2.501
472 2.564
473 2.644
474 2.611
475 2.67
476 2.669
477 2.634
478 2.705
479 2.705
480 2.704
481 2.693
482 2.714
483 2.691
484 2.658
485 2.627
486 2.392
487 2.26
488 2.448
489 2.526
490 2.63
491 2.67
492 2.578
493 2.573
494 2.605
495 2.67
496 2.672
497 2.664
498 2.645
499 2.602
500 2.6
501 2.56
502 2.511
503 2.565
504 2.616
505 2.607
506 2.704
507 2.748
508 2.709
509 2.671
510 2.63
511 2.603
512 2.656
513 2.629
514 2.567
515 2.536
516 2.577
517 2.401
518 2.259
519 2.346
520 2.513
521 2.561
522 2.61
523 2.559
524 2.606
525 2.687
526 2.659
527 2.436
528 2.496
529 2.658
530 2.686
531 2.727
532 2.734
533 2.705
534 2.669
535 2.68
536 2.761
537 2.7
538 2.702
539 2.722
540 2.662
541 2.611
542 2.67
543 2.703
544 2.728
545 2.754
546 2.762
547 2.765
548 2.734
549 2.749
550 2.784
551 2.772
552 2.784
553 2.781
554 2.775
555 2.805
556 2.793
557 2.738
558 2.706
559 2.673
560 2.639
561 2.705
562 2.732
563 2.702
564 2.718
565 2.727
566 2.705
567 2.708
568 2.758
569 2.738
570 2.733
571 2.707
572 2.714
573 2.821
574 2.836
575 2.814
576 2.775
577 2.788
578 2.795
579 2.759
580 2.782
581 2.809
582 2.825
583 2.855
584 2.86
585 2.841
586 2.792
587 2.788
588 2.829
589 2.722
590 2.608
591 2.736
592 2.803
593 2.811
594 2.809
595 2.82
596 2.809
597 2.831
598 2.829
599 2.806
600 2.814
601 2.799
602 2.768
603 2.782
604 2.835
605 2.848
606 2.834
607 2.825
608 2.816
609 2.792
610 2.779
611 2.782
612 2.789
613 2.778
614 2.745
615 2.745
616 2.725
617 2.676
618 2.72
619 2.763
620 2.782
621 2.81
622 2.792
623 2.777
624 2.764
625 2.741
626 2.733
627 2.789
628 2.825
629 2.828
630 2.798
631 2.787
632 2.749
633 2.785
634 2.772
635 2.783
636 2.784
637 2.778
638 2.819
639 2.819
640 2.765
641 2.745
642 2.736
643 2.766
644 2.759
645 2.765
646 2.743
647 2.748
648 2.77
649 2.764
650 2.683
651 2.78
652 2.796
653 2.758
654 2.737
655 2.695
656 2.519
657 2.316
658 2.565
659 2.691
660 2.701
661 2.726
662 2.743
663 2.736
664 2.704
665 2.713
666 2.722
667 2.708
668 2.702
669 2.721
670 2.715
671 2.706
672 2.695
673 2.688
674 2.684
675 2.681
676 2.677
677 2.674
678 2.672
679 2.669
680 2.667
681 2.666
682 2.664
683 2.663
684 2.662
685 2.662
686 2.662
687 2.662
688 2.662
689 2.667
690 2.682
691 2.688
692 2.675
693 2.667
694 2.672
695 2.658
696 2.657
697 2.666
698 2.63
699 2.663
700 2.671
701 2.636
702 2.62
703 2.632
704 2.645
705 2.673
706 2.657
707 2.626
708 2.629
709 2.607
710 2.59
711 2.601
712 2.566
713 2.557
714 2.564
715 2.559
716 2.55
717 2.562
718 2.56
719 2.527
720 2.529
721 2.535
722 2.536
723 2.534
724 2.546
725 2.54
726 2.519
727 2.527
728 2.522
729 2.477
730 2.467
731 2.513
732 2.508
733 2.507
734 2.508
735 2.509
736 2.483
737 2.477
738 2.474
739 2.419
740 2.423
741 2.41
742 2.393
743 2.43
744 2.466
745 2.441
746 2.468
747 2.459
748 2.468
749 2.455
750 2.427
