# Top-of-atmosphere (TOA) lunar irradiance from Miller and Turner (2009) by 10 nm increments
# First column wavelength (nm), second column TOA irradiance# Phase angle = 125
# Units = mW/m^2-micrometer

300 0.1535
310 0.153
320 0.2319
330 0.3772
340 0.3397
350 0.3136
360 0.4139
370 0.4991
380 0.4351
390 0.5144
400 0.7414
410 0.7742
420 0.8058
430 0.7114
440 0.8684
450 1.033
460 1.062
470 1.073
480 1.145
490 1.116
500 1.105
510 1.119
520 1.071
530 1.147
540 1.138
550 1.192
560 1.132
570 1.174
580 1.197
590 1.124
600 1.214
610 1.201
620 1.204
630 1.213
640 1.2
650 1.167
660 1.177
670 1.184
680 1.165
690 1.174
700 1.171
710 1.137
720 1.112
730 1.086
740 1.069
750 1.072
