# Top-of-atmosphere (TOA) lunar irradiance from Miller and Turner (2009)
# First column wavelength (nm), second column TOA irradiance# Lunar phase angle: 167
# Irradiance units: mW/m^2-micrometer

300 0.4491
301 0.3339
302 0.4203
303 0.4015
304 0.5678
305 0.5287
306 0.5396
307 0.4991
308 0.5803
309 0.5851
310 0.4467
311 0.5933
312 0.7038
313 0.6111
314 0.6628
315 0.6089
316 0.6269
317 0.5729
318 0.7975
319 0.6133
320 0.6758
321 0.8346
322 0.662
323 0.6936
324 0.6467
325 0.7749
326 0.8678
327 0.9891
328 0.9601
329 0.8925
330 1.097
331 1.012
332 1.002
333 0.9724
334 0.9315
335 0.9962
336 1.015
337 0.8036
338 0.882
339 0.9467
340 0.9857
341 1.089
342 0.9543
343 1.062
344 1.067
345 0.7696
346 1.05
347 0.9745
348 0.9666
349 1.008
350 0.9083
351 1.2
352 1.071
353 0.959
354 1.157
355 1.231
356 1.154
357 1.032
358 0.9369
359 0.6994
360 1.197
361 1.128
362 0.9999
363 1.143
364 1.079
365 1.165
366 1.337
367 1.423
368 1.372
369 1.224
370 1.44
371 1.276
372 1.476
373 1.22
374 1.053
375 1.074
376 1.291
377 1.267
378 1.526
379 1.639
380 1.253
381 1.467
382 1.333
383 0.9561
384 0.7967
385 1.155
386 1.216
387 1.231
388 1.202
389 1.156
390 1.478
391 1.512
392 1.761
393 1.331
394 0.5798
395 1.342
396 1.736
397 0.9228
398 1.037
399 1.977
400 2.126
401 2.136
402 2.323
403 2.36
404 2.311
405 2.258
406 2.195
407 2.137
408 2.167
409 2.197
410 2.216
411 2.053
412 2.136
413 2.22
414 2.304
415 2.313
416 2.318
417 2.348
418 2.301
419 2.3
420 2.302
421 2.358
422 2.403
423 2.321
424 2.293
425 2.348
426 2.332
427 2.322
428 2.236
429 2.234
430 2.028
431 1.693
432 2.098
433 2.319
434 2.288
435 2.241
436 2.409
437 2.544
438 2.466
439 2.371
440 2.47
441 2.578
442 2.677
443 2.759
444 2.767
445 2.77
446 2.724
447 2.707
448 2.867
449 2.903
450 2.933
451 3.065
452 3.08
453 2.937
454 2.863
455 2.995
456 3.016
457 3.099
458 3.102
459 3.026
460 3.009
461 3.057
462 3.106
463 3.137
464 3.103
465 3.036
466 3.037
467 3.015
468 3
469 3.055
470 3.033
471 2.991
472 3.066
473 3.162
474 3.122
475 3.192
476 3.192
477 3.149
478 3.233
479 3.234
480 3.233
481 3.219
482 3.244
483 3.216
484 3.176
485 3.14
486 2.858
487 2.701
488 2.925
489 3.018
490 3.143
491 3.19
492 3.08
493 3.074
494 3.113
495 3.189
496 3.192
497 3.182
498 3.159
499 3.108
500 3.105
501 3.057
502 2.998
503 3.064
504 3.123
505 3.113
506 3.229
507 3.281
508 3.235
509 3.189
510 3.14
511 3.107
512 3.171
513 3.138
514 3.064
515 3.027
516 3.075
517 2.865
518 2.696
519 2.8
520 2.999
521 3.056
522 3.114
523 3.053
524 3.109
525 3.206
526 3.173
527 2.906
528 2.978
529 3.171
530 3.204
531 3.252
532 3.261
533 3.227
534 3.184
535 3.195
536 3.292
537 3.22
538 3.222
539 3.245
540 3.174
541 3.113
542 3.183
543 3.222
544 3.252
545 3.282
546 3.292
547 3.295
548 3.259
549 3.277
550 3.318
551 3.303
552 3.317
553 3.314
554 3.307
555 3.342
556 3.328
557 3.262
558 3.224
559 3.184
560 3.144
561 3.222
562 3.254
563 3.219
564 3.237
565 3.247
566 3.221
567 3.225
568 3.284
569 3.26
570 3.254
571 3.223
572 3.231
573 3.358
574 3.377
575 3.35
576 3.303
577 3.319
578 3.327
579 3.284
580 3.311
581 3.344
582 3.362
583 3.398
584 3.403
585 3.38
586 3.322
587 3.317
588 3.365
589 3.238
590 3.103
591 3.255
592 3.334
593 3.343
594 3.341
595 3.354
596 3.341
597 3.366
598 3.365
599 3.336
600 3.346
601 3.328
602 3.291
603 3.308
604 3.371
605 3.385
606 3.369
607 3.359
608 3.348
609 3.318
610 3.303
611 3.306
612 3.314
613 3.301
614 3.262
615 3.262
616 3.238
617 3.18
618 3.232
619 3.283
620 3.305
621 3.338
622 3.317
623 3.299
624 3.283
625 3.255
626 3.246
627 3.312
628 3.355
629 3.359
630 3.323
631 3.309
632 3.264
633 3.307
634 3.291
635 3.304
636 3.305
637 3.299
638 3.346
639 3.347
640 3.282
641 3.258
642 3.247
643 3.283
644 3.275
645 3.281
646 3.255
647 3.261
648 3.286
649 3.279
650 3.184
651 3.298
652 3.317
653 3.271
654 3.246
655 3.197
656 2.988
657 2.748
658 3.042
659 3.191
660 3.204
661 3.233
662 3.253
663 3.244
664 3.207
665 3.217
666 3.227
667 3.21
668 3.203
669 3.225
670 3.219
671 3.208
672 3.194
673 3.186
674 3.181
675 3.177
676 3.173
677 3.169
678 3.166
679 3.163
680 3.161
681 3.158
682 3.157
683 3.155
684 3.154
685 3.153
686 3.153
687 3.153
688 3.153
689 3.159
690 3.177
691 3.183
692 3.168
693 3.158
694 3.164
695 3.148
696 3.146
697 3.156
698 3.114
699 3.153
700 3.163
701 3.12
702 3.101
703 3.115
704 3.131
705 3.164
706 3.145
707 3.107
708 3.112
709 3.085
710 3.065
711 3.078
712 3.037
713 3.026
714 3.033
715 3.028
716 3.017
717 3.031
718 3.028
719 2.99
720 2.992
721 2.998
722 3
723 2.997
724 3.01
725 3.003
726 2.979
727 2.988
728 2.983
729 2.928
730 2.916
731 2.971
732 2.965
733 2.963
734 2.964
735 2.966
736 2.935
737 2.927
738 2.924
739 2.859
740 2.864
741 2.848
742 2.828
743 2.871
744 2.914
745 2.885
746 2.916
747 2.905
748 2.916
749 2.9
750 2.867
