# Top-of-atmosphere (TOA) lunar irradiance from Miller and Turner (2009)
# First column wavelength (nm), second column TOA irradiance# Lunar phase angle: 142
# Irradiance units: mW/m^2-micrometer

300 0.232
301 0.1725
302 0.2172
303 0.2075
304 0.2935
305 0.2734
306 0.2791
307 0.2581
308 0.3002
309 0.3027
310 0.2311
311 0.3071
312 0.3643
313 0.3164
314 0.3432
315 0.3153
316 0.3247
317 0.2967
318 0.4132
319 0.3178
320 0.3502
321 0.4326
322 0.3432
323 0.3596
324 0.3354
325 0.4019
326 0.4501
327 0.5132
328 0.4982
329 0.4632
330 0.5692
331 0.5255
332 0.5204
333 0.505
334 0.4838
335 0.5175
336 0.5275
337 0.4175
338 0.4584
339 0.492
340 0.5124
341 0.5659
342 0.4962
343 0.5521
344 0.555
345 0.4004
346 0.5464
347 0.5071
348 0.5031
349 0.5246
350 0.4729
351 0.6249
352 0.5577
353 0.4995
354 0.6028
355 0.6415
356 0.6015
357 0.5377
358 0.4884
359 0.3646
360 0.6239
361 0.5885
362 0.5216
363 0.5963
364 0.5631
365 0.6077
366 0.6976
367 0.7426
368 0.7162
369 0.639
370 0.752
371 0.6667
372 0.7713
373 0.6372
374 0.5501
375 0.5613
376 0.6747
377 0.6622
378 0.7982
379 0.8569
380 0.6552
381 0.7673
382 0.6975
383 0.5003
384 0.4169
385 0.6047
386 0.6364
387 0.6445
388 0.6296
389 0.6056
390 0.7743
391 0.7924
392 0.9226
393 0.6977
394 0.3039
395 0.7037
396 0.9104
397 0.4839
398 0.5441
399 1.037
400 1.116
401 1.121
402 1.219
403 1.239
404 1.213
405 1.186
406 1.153
407 1.123
408 1.138
409 1.154
410 1.164
411 1.079
412 1.123
413 1.167
414 1.212
415 1.216
416 1.219
417 1.235
418 1.211
419 1.21
420 1.211
421 1.241
422 1.265
423 1.222
424 1.207
425 1.237
426 1.228
427 1.223
428 1.178
429 1.178
430 1.069
431 0.8926
432 1.106
433 1.223
434 1.207
435 1.182
436 1.271
437 1.343
438 1.302
439 1.251
440 1.304
441 1.361
442 1.414
443 1.457
444 1.462
445 1.464
446 1.44
447 1.431
448 1.515
449 1.535
450 1.551
451 1.621
452 1.629
453 1.553
454 1.514
455 1.585
456 1.596
457 1.641
458 1.642
459 1.602
460 1.593
461 1.619
462 1.645
463 1.662
464 1.644
465 1.609
466 1.61
467 1.598
468 1.59
469 1.62
470 1.609
471 1.586
472 1.627
473 1.678
474 1.657
475 1.694
476 1.694
477 1.672
478 1.717
479 1.717
480 1.717
481 1.71
482 1.724
483 1.709
484 1.688
485 1.669
486 1.52
487 1.436
488 1.556
489 1.605
490 1.672
491 1.697
492 1.639
493 1.636
494 1.657
495 1.698
496 1.7
497 1.695
498 1.683
499 1.656
500 1.655
501 1.629
502 1.598
503 1.633
504 1.665
505 1.66
506 1.722
507 1.75
508 1.726
509 1.701
510 1.676
511 1.658
512 1.692
513 1.675
514 1.636
515 1.617
516 1.643
517 1.531
518 1.44
519 1.496
520 1.603
521 1.634
522 1.665
523 1.633
524 1.663
525 1.715
526 1.697
527 1.555
528 1.593
529 1.697
530 1.715
531 1.741
532 1.746
533 1.728
534 1.705
535 1.712
536 1.764
537 1.725
538 1.727
539 1.74
540 1.702
541 1.669
542 1.707
543 1.728
544 1.744
545 1.761
546 1.767
547 1.769
548 1.749
549 1.759
550 1.782
551 1.774
552 1.782
553 1.78
554 1.777
555 1.796
556 1.789
557 1.753
558 1.733
559 1.712
560 1.691
561 1.733
562 1.75
563 1.732
564 1.742
565 1.748
566 1.734
567 1.736
568 1.768
569 1.756
570 1.752
571 1.736
572 1.741
573 1.81
574 1.82
575 1.806
576 1.781
577 1.789
578 1.794
579 1.771
580 1.786
581 1.804
582 1.814
583 1.834
584 1.837
585 1.825
586 1.794
587 1.792
588 1.818
589 1.749
590 1.676
591 1.759
592 1.802
593 1.807
594 1.806
595 1.813
596 1.807
597 1.821
598 1.82
599 1.805
600 1.811
601 1.801
602 1.781
603 1.791
604 1.825
605 1.833
606 1.825
607 1.819
608 1.814
609 1.798
610 1.79
611 1.792
612 1.797
613 1.79
614 1.769
615 1.769
616 1.757
617 1.725
618 1.754
619 1.782
620 1.794
621 1.812
622 1.801
623 1.791
624 1.783
625 1.768
626 1.763
627 1.8
628 1.823
629 1.826
630 1.806
631 1.799
632 1.775
633 1.799
634 1.79
635 1.798
636 1.798
637 1.795
638 1.821
639 1.822
640 1.787
641 1.774
642 1.768
643 1.788
644 1.784
645 1.788
646 1.774
647 1.777
648 1.791
649 1.788
650 1.736
651 1.799
652 1.81
653 1.785
654 1.771
655 1.745
656 1.631
657 1.5
658 1.661
659 1.743
660 1.75
661 1.766
662 1.777
663 1.772
664 1.752
665 1.758
666 1.764
667 1.755
668 1.752
669 1.764
670 1.761
671 1.755
672 1.748
673 1.744
674 1.741
675 1.739
676 1.737
677 1.735
678 1.734
679 1.733
680 1.731
681 1.731
682 1.73
683 1.729
684 1.729
685 1.729
686 1.729
687 1.729
688 1.73
689 1.733
690 1.743
691 1.747
692 1.739
693 1.733
694 1.737
695 1.728
696 1.728
697 1.734
698 1.711
699 1.732
700 1.738
701 1.715
702 1.705
703 1.713
704 1.722
705 1.74
706 1.73
707 1.709
708 1.712
709 1.698
710 1.687
711 1.694
712 1.672
713 1.666
714 1.67
715 1.668
716 1.662
717 1.67
718 1.669
719 1.648
720 1.649
721 1.653
722 1.654
723 1.653
724 1.66
725 1.657
726 1.643
727 1.649
728 1.646
729 1.616
730 1.61
731 1.64
732 1.637
733 1.637
734 1.637
735 1.639
736 1.622
737 1.618
738 1.616
739 1.58
740 1.583
741 1.575
742 1.564
743 1.588
744 1.612
745 1.596
746 1.614
747 1.608
748 1.614
749 1.606
750 1.588
