# Top-of-atmosphere (TOA) lunar irradiance from Miller and Turner (2009) by 10 nm increments
# First column wavelength (nm), second column TOA irradiance# Phase angle = 95
# Units = mW/m^2-micrometer

300 0.06738
310 0.06718
320 0.1019
330 0.1657
340 0.1493
350 0.1379
360 0.1821
370 0.2197
380 0.1916
390 0.2266
400 0.3267
410 0.3412
420 0.3553
430 0.3138
440 0.3832
450 0.456
460 0.4689
470 0.4738
480 0.5062
490 0.4933
500 0.4885
510 0.4952
520 0.474
530 0.5077
540 0.5041
550 0.5282
560 0.5017
570 0.5204
580 0.5309
590 0.4987
600 0.539
610 0.5333
620 0.535
630 0.5391
640 0.5337
650 0.519
660 0.5235
670 0.5272
680 0.5189
690 0.5228
700 0.5217
710 0.5068
720 0.4958
730 0.4845
740 0.4769
750 0.4786
