# Top-of-atmosphere (TOA) lunar irradiance from Miller and Turner (2009) by 10 nm increments
# First column wavelength (nm), second column TOA irradiance# Phase angle = 93
# Units = mW/m^2-micrometer

300 0.06309
310 0.06291
320 0.0954
330 0.1552
340 0.1398
350 0.1292
360 0.1706
370 0.2057
380 0.1794
390 0.2122
400 0.306
410 0.3197
420 0.3329
430 0.294
440 0.359
450 0.4272
460 0.4393
470 0.444
480 0.4744
490 0.4623
500 0.4578
510 0.4641
520 0.4442
530 0.4759
540 0.4725
550 0.4951
560 0.4702
570 0.4879
580 0.4977
590 0.4675
600 0.5054
610 0.5
620 0.5016
630 0.5055
640 0.5005
650 0.4867
660 0.4909
670 0.4944
680 0.4867
690 0.4904
700 0.4893
710 0.4754
720 0.4651
730 0.4545
740 0.4473
750 0.449
