# Top-of-atmosphere (TOA) lunar irradiance from Miller and Turner (2009)
# First column wavelength (nm), second column TOA irradiance# Lunar phase angle: 78
# Irradiance units: mW/m^2-micrometer

300 0.03557
301 0.02645
302 0.03331
303 0.03183
304 0.04502
305 0.04194
306 0.04282
307 0.03961
308 0.04607
309 0.04647
310 0.03549
311 0.04715
312 0.05594
313 0.04859
314 0.05272
315 0.04845
316 0.04989
317 0.0456
318 0.06351
319 0.04885
320 0.05384
321 0.06652
322 0.05278
323 0.05532
324 0.05159
325 0.06184
326 0.06927
327 0.07898
328 0.07668
329 0.0713
330 0.08765
331 0.08093
332 0.08015
333 0.07778
334 0.07453
335 0.07973
336 0.08129
337 0.06435
338 0.07066
339 0.07586
340 0.07901
341 0.08728
342 0.07654
343 0.08517
344 0.08563
345 0.06178
346 0.08433
347 0.07828
348 0.07767
349 0.081
350 0.07303
351 0.09652
352 0.08615
353 0.07717
354 0.09315
355 0.09913
356 0.09296
357 0.08312
358 0.07551
359 0.05638
360 0.09649
361 0.09102
362 0.08068
363 0.09226
364 0.08714
365 0.09405
366 0.108
367 0.115
368 0.1109
369 0.09896
370 0.1165
371 0.1033
372 0.1195
373 0.09873
374 0.08525
375 0.087
376 0.1046
377 0.1027
378 0.1238
379 0.1329
380 0.1016
381 0.119
382 0.1082
383 0.07763
384 0.06471
385 0.09386
386 0.09879
387 0.1001
388 0.09777
389 0.09405
390 0.1203
391 0.1231
392 0.1434
393 0.1084
394 0.04724
395 0.1094
396 0.1415
397 0.07525
398 0.08462
399 0.1613
400 0.1735
401 0.1744
402 0.1897
403 0.1928
404 0.1888
405 0.1846
406 0.1794
407 0.1748
408 0.1773
409 0.1798
410 0.1814
411 0.1681
412 0.175
413 0.1819
414 0.1889
415 0.1896
416 0.1901
417 0.1926
418 0.1888
419 0.1888
420 0.189
421 0.1937
422 0.1975
423 0.1907
424 0.1885
425 0.1931
426 0.1918
427 0.191
428 0.184
429 0.184
430 0.167
431 0.1395
432 0.1729
433 0.1911
434 0.1887
435 0.1848
436 0.1987
437 0.21
438 0.2036
439 0.1958
440 0.2041
441 0.213
442 0.2212
443 0.2281
444 0.2289
445 0.2292
446 0.2254
447 0.2241
448 0.2374
449 0.2404
450 0.243
451 0.254
452 0.2554
453 0.2435
454 0.2375
455 0.2485
456 0.2503
457 0.2573
458 0.2576
459 0.2514
460 0.25
461 0.2541
462 0.2583
463 0.2609
464 0.2582
465 0.2527
466 0.2529
467 0.251
468 0.2499
469 0.2545
470 0.2528
471 0.2493
472 0.2557
473 0.2638
474 0.2605
475 0.2664
476 0.2665
477 0.2631
478 0.2701
479 0.2703
480 0.2703
481 0.2692
482 0.2714
483 0.2691
484 0.2659
485 0.2629
486 0.2394
487 0.2263
488 0.2451
489 0.253
490 0.2635
491 0.2675
492 0.2584
493 0.258
494 0.2613
495 0.2678
496 0.2681
497 0.2674
498 0.2655
499 0.2614
500 0.2612
501 0.2572
502 0.2523
503 0.2579
504 0.263
505 0.2622
506 0.2721
507 0.2765
508 0.2727
509 0.2689
510 0.2649
511 0.2622
512 0.2676
513 0.265
514 0.2588
515 0.2558
516 0.2599
517 0.2422
518 0.228
519 0.2368
520 0.2537
521 0.2586
522 0.2636
523 0.2586
524 0.2634
525 0.2716
526 0.2689
527 0.2464
528 0.2525
529 0.269
530 0.2719
531 0.2761
532 0.2769
533 0.2741
534 0.2705
535 0.2716
536 0.2799
537 0.2738
538 0.2741
539 0.2761
540 0.2702
541 0.2651
542 0.2711
543 0.2745
544 0.2771
545 0.2798
546 0.2807
547 0.2811
548 0.2781
549 0.2797
550 0.2833
551 0.2821
552 0.2834
553 0.2832
554 0.2826
555 0.2858
556 0.2846
557 0.2791
558 0.2759
559 0.2726
560 0.2692
561 0.276
562 0.2788
563 0.2759
564 0.2775
565 0.2785
566 0.2763
567 0.2767
568 0.2819
569 0.2799
570 0.2795
571 0.2769
572 0.2776
573 0.2887
574 0.2904
575 0.2882
576 0.2842
577 0.2857
578 0.2865
579 0.2828
580 0.2853
581 0.2881
582 0.2898
583 0.293
584 0.2935
585 0.2916
586 0.2867
587 0.2864
588 0.2906
589 0.2797
590 0.2681
591 0.2813
592 0.2882
593 0.2892
594 0.289
595 0.2902
596 0.2892
597 0.2915
598 0.2914
599 0.2891
600 0.29
601 0.2885
602 0.2854
603 0.2869
604 0.2925
605 0.2939
606 0.2925
607 0.2917
608 0.2908
609 0.2884
610 0.2871
611 0.2875
612 0.2883
613 0.2872
614 0.2839
615 0.284
616 0.282
617 0.277
618 0.2816
619 0.2861
620 0.2882
621 0.2911
622 0.2894
623 0.2879
624 0.2866
625 0.2843
626 0.2835
627 0.2894
628 0.2932
629 0.2937
630 0.2906
631 0.2895
632 0.2856
633 0.2895
634 0.2881
635 0.2894
636 0.2896
637 0.2891
638 0.2933
639 0.2935
640 0.2879
641 0.2859
642 0.285
643 0.2883
644 0.2876
645 0.2882
646 0.286
647 0.2867
648 0.289
649 0.2884
650 0.2801
651 0.2903
652 0.292
653 0.2881
654 0.286
655 0.2817
656 0.2634
657 0.2422
658 0.2683
659 0.2815
660 0.2827
661 0.2854
662 0.2873
663 0.2865
664 0.2833
665 0.2843
666 0.2853
667 0.2839
668 0.2834
669 0.2854
670 0.2849
671 0.284
672 0.2829
673 0.2822
674 0.2819
675 0.2816
676 0.2813
677 0.2811
678 0.2809
679 0.2807
680 0.2806
681 0.2805
682 0.2804
683 0.2804
684 0.2803
685 0.2804
686 0.2804
687 0.2805
688 0.2806
689 0.2812
690 0.2829
691 0.2835
692 0.2823
693 0.2814
694 0.2821
695 0.2807
696 0.2806
697 0.2816
698 0.278
699 0.2815
700 0.2824
701 0.2788
702 0.2771
703 0.2785
704 0.28
705 0.283
706 0.2813
707 0.2781
708 0.2786
709 0.2763
710 0.2746
711 0.2758
712 0.2722
713 0.2713
714 0.272
715 0.2716
716 0.2708
717 0.2721
718 0.2719
719 0.2685
720 0.2688
721 0.2694
722 0.2697
723 0.2695
724 0.2708
725 0.2703
726 0.2681
727 0.269
728 0.2686
729 0.2638
730 0.2628
731 0.2678
732 0.2673
733 0.2673
734 0.2675
735 0.2677
736 0.265
737 0.2643
738 0.2641
739 0.2583
740 0.2588
741 0.2575
742 0.2557
743 0.2597
744 0.2637
745 0.2611
746 0.264
747 0.2632
748 0.2642
749 0.2628
750 0.26
