# Top-of-atmosphere (TOA) lunar irradiance from Miller and Turner (2009)
# First column wavelength (nm), second column TOA irradiance# Lunar phase angle: 17
# Irradiance units: mW/m^2-micrometer

300 0.000727
301 0.0005409
302 0.0006814
303 0.0006514
304 0.0009218
305 0.0008589
306 0.0008773
307 0.0008119
308 0.0009447
309 0.0009533
310 0.0007283
311 0.000968
312 0.001149
313 0.0009984
314 0.001084
315 0.0009963
316 0.001026
317 0.0009386
318 0.001308
319 0.001006
320 0.001109
321 0.001371
322 0.001088
323 0.001141
324 0.001065
325 0.001277
326 0.001431
327 0.001632
328 0.001585
329 0.001475
330 0.001813
331 0.001675
332 0.00166
333 0.001611
334 0.001545
335 0.001653
336 0.001686
337 0.001335
338 0.001467
339 0.001575
340 0.001641
341 0.001814
342 0.001591
343 0.001771
344 0.001782
345 0.001286
346 0.001756
347 0.001631
348 0.001619
349 0.001689
350 0.001523
351 0.002014
352 0.001798
353 0.001612
354 0.001946
355 0.002072
356 0.001944
357 0.001739
358 0.00158
359 0.00118
360 0.002021
361 0.001907
362 0.001691
363 0.001935
364 0.001828
365 0.001974
366 0.002267
367 0.002414
368 0.00233
369 0.00208
370 0.002449
371 0.002172
372 0.002514
373 0.002078
374 0.001795
375 0.001833
376 0.002204
377 0.002165
378 0.002611
379 0.002804
380 0.002146
381 0.002514
382 0.002286
383 0.001641
384 0.001368
385 0.001986
386 0.002091
387 0.002118
388 0.002071
389 0.001993
390 0.002549
391 0.00261
392 0.003041
393 0.002301
394 0.001003
395 0.002323
396 0.003007
397 0.0016
398 0.001799
399 0.003431
400 0.003693
401 0.003713
402 0.004041
403 0.004107
404 0.004025
405 0.003936
406 0.003828
407 0.003731
408 0.003785
409 0.003841
410 0.003876
411 0.003593
412 0.003742
413 0.003891
414 0.004042
415 0.00406
416 0.004073
417 0.004128
418 0.004048
419 0.004049
420 0.004055
421 0.004157
422 0.00424
423 0.004097
424 0.00405
425 0.004152
426 0.004125
427 0.004111
428 0.003961
429 0.003961
430 0.003597
431 0.003006
432 0.003727
433 0.004122
434 0.004071
435 0.003989
436 0.004291
437 0.004536
438 0.0044
439 0.004233
440 0.004414
441 0.00461
442 0.004789
443 0.00494
444 0.004958
445 0.004967
446 0.004888
447 0.004861
448 0.005151
449 0.005219
450 0.005277
451 0.005519
452 0.00555
453 0.005295
454 0.005165
455 0.005407
456 0.00545
457 0.005604
458 0.005612
459 0.00548
460 0.005452
461 0.005543
462 0.005636
463 0.005697
464 0.005639
465 0.00552
466 0.005527
467 0.005489
468 0.005466
469 0.00557
470 0.005535
471 0.005461
472 0.005602
473 0.005782
474 0.005713
475 0.005845
476 0.005848
477 0.005775
478 0.005933
479 0.005938
480 0.005941
481 0.005919
482 0.00597
483 0.005923
484 0.005853
485 0.00579
486 0.005275
487 0.004988
488 0.005406
489 0.005581
490 0.005816
491 0.005907
492 0.005707
493 0.005701
494 0.005777
495 0.005923
496 0.005932
497 0.005918
498 0.005879
499 0.005789
500 0.005787
501 0.005702
502 0.005595
503 0.005722
504 0.005837
505 0.005821
506 0.006043
507 0.006145
508 0.006063
509 0.00598
510 0.005893
511 0.005836
512 0.005959
513 0.005902
514 0.005768
515 0.005702
516 0.005796
517 0.005404
518 0.005088
519 0.005288
520 0.005667
521 0.00578
522 0.005894
523 0.005784
524 0.005893
525 0.00608
526 0.006022
527 0.00552
528 0.00566
529 0.006031
530 0.006099
531 0.006195
532 0.006216
533 0.006155
534 0.006077
535 0.006104
536 0.006293
537 0.006159
538 0.006167
539 0.006216
540 0.006084
541 0.005971
542 0.00611
543 0.00619
544 0.00625
545 0.006314
546 0.006338
547 0.006348
548 0.006282
549 0.006321
550 0.006405
551 0.006381
552 0.006413
553 0.006411
554 0.006401
555 0.006475
556 0.006452
557 0.006328
558 0.006259
559 0.006186
560 0.006111
561 0.006269
562 0.006335
563 0.006271
564 0.00631
565 0.006335
566 0.006288
567 0.0063
568 0.00642
569 0.006378
570 0.00637
571 0.006315
572 0.006334
573 0.006589
574 0.00663
575 0.006582
576 0.006494
577 0.00653
578 0.006551
579 0.006471
580 0.006529
581 0.006597
582 0.006637
583 0.006713
584 0.006728
585 0.006688
586 0.006577
587 0.006573
588 0.006673
589 0.006426
590 0.006161
591 0.006467
592 0.006629
593 0.006653
594 0.006652
595 0.006683
596 0.006662
597 0.006717
598 0.006718
599 0.006666
600 0.006691
601 0.006659
602 0.00659
603 0.006628
604 0.006759
605 0.006793
606 0.006765
607 0.006749
608 0.006732
609 0.006678
610 0.006651
611 0.006663
612 0.006683
613 0.006661
614 0.006587
615 0.006592
616 0.006549
617 0.006436
618 0.006546
619 0.006653
620 0.006703
621 0.006774
622 0.006736
623 0.006704
624 0.006676
625 0.006625
626 0.006611
627 0.00675
628 0.006842
629 0.006855
630 0.006786
631 0.006763
632 0.006676
633 0.006768
634 0.00674
635 0.006772
636 0.006779
637 0.00677
638 0.006873
639 0.006878
640 0.00675
641 0.006706
642 0.006687
643 0.006767
644 0.006754
645 0.006772
646 0.006723
647 0.00674
648 0.006797
649 0.006787
650 0.006594
651 0.006837
652 0.006881
653 0.00679
654 0.006743
655 0.006646
656 0.006216
657 0.005719
658 0.006337
659 0.006652
660 0.006683
661 0.006748
662 0.006796
663 0.006781
664 0.006708
665 0.006734
666 0.006759
667 0.006729
668 0.006719
669 0.00677
670 0.006761
671 0.006744
672 0.006719
673 0.006707
674 0.006702
675 0.006697
676 0.006693
677 0.00669
678 0.006688
679 0.006687
680 0.006686
681 0.006686
682 0.006687
683 0.006689
684 0.006691
685 0.006694
686 0.006698
687 0.006703
688 0.006708
689 0.006726
690 0.006768
691 0.006786
692 0.006759
693 0.006742
694 0.00676
695 0.006729
696 0.00673
697 0.006757
698 0.006672
699 0.00676
700 0.006785
701 0.006699
702 0.006663
703 0.006697
704 0.006736
705 0.006812
706 0.006775
707 0.0067
708 0.006714
709 0.00666
710 0.006622
711 0.006655
712 0.00657
713 0.006551
714 0.006572
715 0.006564
716 0.006546
717 0.006581
718 0.006579
719 0.0065
720 0.006509
721 0.006527
722 0.006537
723 0.006535
724 0.006569
725 0.006558
726 0.006509
727 0.006533
728 0.006526
729 0.006412
730 0.00639
731 0.006514
732 0.006505
733 0.006507
734 0.006513
735 0.006522
736 0.006459
737 0.006446
738 0.006443
739 0.006304
740 0.006319
741 0.00629
742 0.006249
743 0.006349
744 0.006448
745 0.006388
746 0.006462
747 0.006443
748 0.006471
749 0.006439
750 0.006372
