# Top-of-atmosphere (TOA) lunar irradiance from Miller and Turner (2009) by 10 nm increments
# First column wavelength (nm), second column TOA irradiance# Phase angle = 21
# Units = mW/m^2-micrometer

300 0.0009747
310 0.0009766
320 0.001488
330 0.002433
340 0.002203
350 0.002045
360 0.002713
370 0.003289
380 0.002883
390 0.003426
400 0.004965
410 0.005212
420 0.005454
430 0.00484
440 0.00594
450 0.007104
460 0.007341
470 0.007455
480 0.008004
490 0.007838
500 0.007801
510 0.007946
520 0.007644
530 0.008229
540 0.008211
550 0.008646
560 0.008252
570 0.008603
580 0.00882
590 0.008325
600 0.009044
610 0.008992
620 0.009066
630 0.00918
640 0.009134
650 0.008926
660 0.009048
670 0.009156
680 0.009057
690 0.009171
700 0.009196
710 0.008978
720 0.008827
730 0.008669
740 0.008574
750 0.008649
