# Top-of-atmosphere (TOA) lunar irradiance from Miller and Turner (2009) by 10 nm increments
# First column wavelength (nm), second column TOA irradiance# Phase angle = 90
# Units = mW/m^2-micrometer

300 0.05717
310 0.05701
320 0.08646
330 0.1407
340 0.1267
350 0.1171
360 0.1546
370 0.1865
380 0.1627
390 0.1924
400 0.2775
410 0.2899
420 0.3018
430 0.2666
440 0.3256
450 0.3875
460 0.3985
470 0.4027
480 0.4303
490 0.4194
500 0.4154
510 0.421
520 0.4031
530 0.4318
540 0.4288
550 0.4493
560 0.4268
570 0.4428
580 0.4518
590 0.4244
600 0.4588
610 0.4539
620 0.4554
630 0.459
640 0.4544
650 0.4419
660 0.4458
670 0.449
680 0.442
690 0.4454
700 0.4445
710 0.4318
720 0.4225
730 0.4129
740 0.4064
750 0.408
