# Top-of-atmosphere (TOA) lunar irradiance from Miller and Turner (2009) by 10 nm increments
# First column wavelength (nm), second column TOA irradiance# Phase angle = 111
# Units = mW/m^2-micrometer

300 0.1082
310 0.1079
320 0.1635
330 0.266
340 0.2396
350 0.2212
360 0.292
370 0.3522
380 0.3071
390 0.3631
400 0.5234
410 0.5467
420 0.5691
430 0.5024
440 0.6134
450 0.7298
460 0.7503
470 0.7581
480 0.8097
490 0.7889
500 0.7811
510 0.7915
520 0.7575
530 0.8112
540 0.8053
550 0.8436
560 0.801
570 0.8308
580 0.8474
590 0.7957
600 0.8599
610 0.8506
620 0.8532
630 0.8595
640 0.8507
650 0.8271
660 0.8341
670 0.8397
680 0.8264
690 0.8325
700 0.8304
710 0.8066
720 0.7889
730 0.7707
740 0.7584
750 0.7611
