# Top-of-atmosphere (TOA) lunar irradiance from Miller and Turner (2009) by 10 nm increments
# First column wavelength (nm), second column TOA irradiance# Phase angle = 83
# Units = mW/m^2-micrometer

300 0.04369
310 0.04358
320 0.06611
330 0.1076
340 0.09696
350 0.0896
360 0.1184
370 0.1428
380 0.1246
390 0.1474
400 0.2126
410 0.2222
420 0.2315
430 0.2045
440 0.2498
450 0.2974
460 0.306
470 0.3093
480 0.3306
490 0.3223
500 0.3193
510 0.3237
520 0.31
530 0.3322
540 0.33
550 0.3459
560 0.3286
570 0.3411
580 0.3481
590 0.3271
600 0.3537
610 0.3501
620 0.3513
630 0.3541
640 0.3508
650 0.3412
660 0.3443
670 0.3469
680 0.3415
690 0.3443
700 0.3436
710 0.334
720 0.3269
730 0.3195
740 0.3146
750 0.3159
