# Top-of-atmosphere (TOA) lunar irradiance from Miller and Turner (2009)
# First column wavelength (nm), second column TOA irradiance# Lunar phase angle: 174
# Irradiance units: mW/m^2-micrometer

300 0.5429
301 0.4036
302 0.508
303 0.4853
304 0.6863
305 0.639
306 0.6522
307 0.6031
308 0.7012
309 0.7071
310 0.5397
311 0.7169
312 0.8503
313 0.7383
314 0.8008
315 0.7356
316 0.7572
317 0.6919
318 0.9633
319 0.7407
320 0.8161
321 1.008
322 0.7994
323 0.8376
324 0.7809
325 0.9357
326 1.048
327 1.194
328 1.159
329 1.077
330 1.324
331 1.222
332 1.21
333 1.174
334 1.124
335 1.202
336 1.225
337 0.9697
338 1.064
339 1.142
340 1.189
341 1.313
342 1.151
343 1.281
344 1.287
345 0.9284
346 1.267
347 1.175
348 1.166
349 1.215
350 1.095
351 1.447
352 1.291
353 1.156
354 1.395
355 1.484
356 1.392
357 1.244
358 1.129
359 0.8431
360 1.442
361 1.36
362 1.205
363 1.378
364 1.301
365 1.404
366 1.611
367 1.714
368 1.653
369 1.475
370 1.735
371 1.538
372 1.779
373 1.469
374 1.268
375 1.294
376 1.555
377 1.526
378 1.838
379 1.973
380 1.509
381 1.766
382 1.605
383 1.151
384 0.9592
385 1.391
386 1.463
387 1.482
388 1.447
389 1.392
390 1.779
391 1.82
392 2.119
393 1.602
394 0.6978
395 1.615
396 2.089
397 1.11
398 1.248
399 2.379
400 2.558
401 2.57
402 2.795
403 2.839
404 2.78
405 2.716
406 2.64
407 2.571
408 2.606
409 2.642
410 2.665
411 2.468
412 2.569
413 2.669
414 2.771
415 2.781
416 2.787
417 2.823
418 2.766
419 2.765
420 2.767
421 2.834
422 2.889
423 2.789
424 2.755
425 2.822
426 2.802
427 2.79
428 2.686
429 2.685
430 2.436
431 2.034
432 2.52
433 2.785
434 2.749
435 2.692
436 2.893
437 3.056
438 2.962
439 2.847
440 2.967
441 3.096
442 3.214
443 3.313
444 3.323
445 3.326
446 3.271
447 3.25
448 3.441
449 3.484
450 3.52
451 3.679
452 3.697
453 3.525
454 3.435
455 3.594
456 3.619
457 3.719
458 3.722
459 3.631
460 3.61
461 3.667
462 3.727
463 3.763
464 3.723
465 3.641
466 3.643
467 3.616
468 3.598
469 3.663
470 3.638
471 3.586
472 3.676
473 3.791
474 3.743
475 3.827
476 3.826
477 3.776
478 3.876
479 3.876
480 3.875
481 3.858
482 3.888
483 3.855
484 3.806
485 3.763
486 3.425
487 3.237
488 3.505
489 3.616
490 3.765
491 3.821
492 3.689
493 3.682
494 3.729
495 3.82
496 3.823
497 3.811
498 3.783
499 3.722
500 3.718
501 3.661
502 3.59
503 3.668
504 3.74
505 3.726
506 3.866
507 3.928
508 3.872
509 3.817
510 3.758
511 3.719
512 3.794
513 3.756
514 3.667
515 3.623
516 3.68
517 3.428
518 3.225
519 3.349
520 3.587
521 3.656
522 3.725
523 3.653
524 3.719
525 3.834
526 3.794
527 3.476
528 3.561
529 3.792
530 3.832
531 3.889
532 3.899
533 3.858
534 3.806
535 3.82
536 3.936
537 3.849
538 3.851
539 3.879
540 3.794
541 3.721
542 3.804
543 3.851
544 3.886
545 3.922
546 3.934
547 3.937
548 3.894
549 3.915
550 3.964
551 3.946
552 3.963
553 3.959
554 3.95
555 3.992
556 3.975
557 3.895
558 3.85
559 3.803
560 3.754
561 3.848
562 3.885
563 3.843
564 3.864
565 3.877
566 3.845
567 3.85
568 3.92
569 3.891
570 3.883
571 3.847
572 3.856
573 4.008
574 4.03
575 3.997
576 3.941
577 3.96
578 3.97
579 3.918
580 3.95
581 3.989
582 4.01
583 4.053
584 4.059
585 4.032
586 3.962
587 3.956
588 4.013
589 3.862
590 3.7
591 3.881
592 3.975
593 3.986
594 3.983
595 3.998
596 3.983
597 4.013
598 4.011
599 3.976
600 3.988
601 3.966
602 3.922
603 3.942
604 4.016
605 4.034
606 4.014
607 4.002
608 3.988
609 3.953
610 3.934
611 3.939
612 3.948
613 3.932
614 3.885
615 3.885
616 3.857
617 3.787
618 3.849
619 3.909
620 3.936
621 3.974
622 3.949
623 3.927
624 3.908
625 3.875
626 3.864
627 3.943
628 3.993
629 3.998
630 3.955
631 3.938
632 3.885
633 3.935
634 3.916
635 3.932
636 3.933
637 3.924
638 3.981
639 3.981
640 3.904
641 3.876
642 3.862
643 3.905
644 3.895
645 3.902
646 3.871
647 3.878
648 3.908
649 3.899
650 3.786
651 3.922
652 3.944
653 3.889
654 3.859
655 3.801
656 3.552
657 3.266
658 3.616
659 3.793
660 3.808
661 3.842
662 3.866
663 3.855
664 3.81
665 3.823
666 3.834
667 3.814
668 3.806
669 3.832
670 3.823
671 3.811
672 3.794
673 3.784
674 3.778
675 3.773
676 3.768
677 3.764
678 3.76
679 3.756
680 3.753
681 3.75
682 3.748
683 3.746
684 3.744
685 3.743
686 3.743
687 3.742
688 3.743
689 3.75
690 3.77
691 3.778
692 3.759
693 3.747
694 3.755
695 3.735
696 3.732
697 3.744
698 3.695
699 3.74
700 3.751
701 3.701
702 3.678
703 3.695
704 3.713
705 3.752
706 3.729
707 3.685
708 3.69
709 3.658
710 3.634
711 3.649
712 3.6
713 3.587
714 3.595
715 3.589
716 3.576
717 3.593
718 3.589
719 3.543
720 3.545
721 3.553
722 3.555
723 3.551
724 3.567
725 3.558
726 3.529
727 3.54
728 3.533
729 3.469
730 3.455
731 3.519
732 3.511
733 3.51
734 3.511
735 3.512
736 3.476
737 3.466
738 3.462
739 3.385
740 3.39
741 3.372
742 3.348
743 3.399
744 3.449
745 3.414
746 3.451
747 3.439
748 3.451
749 3.432
750 3.393
