# Top-of-atmosphere (TOA) lunar irradiance from Miller and Turner (2009)
# First column wavelength (nm), second column TOA irradiance# Lunar phase angle: 173
# Irradiance units: mW/m^2-micrometer

300 0.5282
301 0.3926
302 0.4943
303 0.4722
304 0.6677
305 0.6217
306 0.6345
307 0.5868
308 0.6823
309 0.688
310 0.5252
311 0.6975
312 0.8273
313 0.7184
314 0.7792
315 0.7158
316 0.7368
317 0.6733
318 0.9373
319 0.7207
320 0.7941
321 0.9808
322 0.7779
323 0.815
324 0.7599
325 0.9105
326 1.02
327 1.162
328 1.128
329 1.048
330 1.288
331 1.189
332 1.177
333 1.142
334 1.094
335 1.17
336 1.192
337 0.9437
338 1.036
339 1.112
340 1.157
341 1.278
342 1.121
343 1.246
344 1.253
345 0.9035
346 1.233
347 1.144
348 1.135
349 1.183
350 1.066
351 1.409
352 1.257
353 1.126
354 1.358
355 1.445
356 1.354
357 1.211
358 1.099
359 0.8207
360 1.404
361 1.324
362 1.173
363 1.341
364 1.266
365 1.366
366 1.568
367 1.669
368 1.609
369 1.435
370 1.689
371 1.497
372 1.731
373 1.43
374 1.235
375 1.259
376 1.513
377 1.485
378 1.79
379 1.921
380 1.469
381 1.719
382 1.563
383 1.121
384 0.9338
385 1.354
386 1.425
387 1.443
388 1.409
389 1.355
390 1.732
391 1.772
392 2.063
393 1.56
394 0.6794
395 1.573
396 2.034
397 1.081
398 1.215
399 2.316
400 2.491
401 2.502
402 2.722
403 2.764
404 2.706
405 2.645
406 2.57
407 2.503
408 2.538
409 2.573
410 2.595
411 2.403
412 2.501
413 2.599
414 2.698
415 2.708
416 2.714
417 2.749
418 2.694
419 2.692
420 2.694
421 2.76
422 2.813
423 2.716
424 2.683
425 2.748
426 2.729
427 2.717
428 2.616
429 2.614
430 2.373
431 1.981
432 2.454
433 2.712
434 2.677
435 2.621
436 2.818
437 2.976
438 2.885
439 2.773
440 2.889
441 3.016
442 3.13
443 3.227
444 3.236
445 3.239
446 3.185
447 3.165
448 3.352
449 3.394
450 3.429
451 3.584
452 3.601
453 3.433
454 3.346
455 3.501
456 3.525
457 3.622
458 3.625
459 3.537
460 3.516
461 3.572
462 3.63
463 3.666
464 3.626
465 3.547
466 3.549
467 3.522
468 3.504
469 3.568
470 3.543
471 3.493
472 3.581
473 3.693
474 3.646
475 3.728
476 3.727
477 3.678
478 3.776
479 3.776
480 3.775
481 3.758
482 3.788
483 3.755
484 3.708
485 3.666
486 3.337
487 3.153
488 3.415
489 3.523
490 3.668
491 3.723
492 3.594
493 3.588
494 3.633
495 3.722
496 3.725
497 3.713
498 3.686
499 3.627
500 3.623
501 3.567
502 3.498
503 3.574
504 3.644
505 3.631
506 3.767
507 3.827
508 3.773
509 3.719
510 3.662
511 3.624
512 3.697
513 3.66
514 3.573
515 3.53
516 3.586
517 3.34
518 3.143
519 3.264
520 3.496
521 3.562
522 3.63
523 3.559
524 3.624
525 3.736
526 3.698
527 3.387
528 3.47
529 3.695
530 3.734
531 3.79
532 3.8
533 3.76
534 3.709
535 3.723
536 3.836
537 3.751
538 3.753
539 3.78
540 3.697
541 3.626
542 3.707
543 3.753
544 3.787
545 3.823
546 3.834
547 3.837
548 3.795
549 3.816
550 3.863
551 3.846
552 3.862
553 3.858
554 3.85
555 3.891
556 3.874
557 3.797
558 3.753
559 3.707
560 3.659
561 3.75
562 3.787
563 3.746
564 3.767
565 3.779
566 3.748
567 3.752
568 3.821
569 3.793
570 3.785
571 3.75
572 3.758
573 3.907
574 3.928
575 3.897
576 3.842
577 3.86
578 3.87
579 3.82
580 3.851
581 3.888
582 3.909
583 3.951
584 3.957
585 3.93
586 3.862
587 3.857
588 3.913
589 3.765
590 3.607
591 3.783
592 3.875
593 3.886
594 3.883
595 3.898
596 3.883
597 3.912
598 3.91
599 3.877
600 3.888
601 3.867
602 3.824
603 3.843
604 3.916
605 3.933
606 3.914
607 3.902
608 3.889
609 3.855
610 3.836
611 3.841
612 3.849
613 3.834
614 3.789
615 3.788
616 3.761
617 3.693
618 3.753
619 3.812
620 3.838
621 3.875
622 3.851
623 3.83
624 3.811
625 3.779
626 3.768
627 3.845
628 3.894
629 3.899
630 3.857
631 3.841
632 3.788
633 3.838
634 3.819
635 3.834
636 3.835
637 3.827
638 3.883
639 3.883
640 3.808
641 3.78
642 3.767
643 3.809
644 3.798
645 3.806
646 3.775
647 3.782
648 3.811
649 3.803
650 3.692
651 3.825
652 3.847
653 3.793
654 3.764
655 3.707
656 3.465
657 3.185
658 3.527
659 3.7
660 3.714
661 3.748
662 3.771
663 3.76
664 3.717
665 3.729
666 3.74
667 3.72
668 3.712
669 3.738
670 3.73
671 3.717
672 3.701
673 3.691
674 3.686
675 3.681
676 3.676
677 3.672
678 3.668
679 3.664
680 3.661
681 3.658
682 3.656
683 3.654
684 3.653
685 3.652
686 3.651
687 3.651
688 3.651
689 3.658
690 3.679
691 3.686
692 3.668
693 3.656
694 3.663
695 3.644
696 3.641
697 3.653
698 3.605
699 3.65
700 3.66
701 3.611
702 3.589
703 3.605
704 3.623
705 3.661
706 3.639
707 3.595
708 3.6
709 3.569
710 3.546
711 3.561
712 3.513
713 3.5
714 3.508
715 3.502
716 3.49
717 3.506
718 3.502
719 3.457
720 3.46
721 3.467
722 3.469
723 3.465
724 3.481
725 3.473
726 3.444
727 3.454
728 3.448
729 3.385
730 3.371
731 3.434
732 3.427
733 3.425
734 3.426
735 3.428
736 3.392
737 3.383
738 3.379
739 3.304
740 3.309
741 3.291
742 3.267
743 3.317
744 3.366
745 3.333
746 3.369
747 3.356
748 3.368
749 3.349
750 3.312
