# Top-of-atmosphere (TOA) lunar irradiance from Miller and Turner (2009) by 10 nm increments
# First column wavelength (nm), second column TOA irradiance# Phase angle = 89
# Units = mW/m^2-micrometer

300 0.05502
310 0.05486
320 0.0832
330 0.1354
340 0.122
350 0.1127
360 0.1488
370 0.1795
380 0.1566
390 0.1852
400 0.2671
410 0.2791
420 0.2906
430 0.2567
440 0.3135
450 0.3731
460 0.3837
470 0.3878
480 0.4144
490 0.4039
500 0.4
510 0.4055
520 0.3882
530 0.4159
540 0.413
550 0.4328
560 0.4111
570 0.4266
580 0.4353
590 0.4089
600 0.442
610 0.4374
620 0.4389
630 0.4423
640 0.4379
650 0.4259
660 0.4297
670 0.4327
680 0.426
690 0.4293
700 0.4284
710 0.4162
720 0.4073
730 0.3981
740 0.3918
750 0.3933
