# Top-of-atmosphere (TOA) lunar irradiance from Miller and Turner (2009)
# First column wavelength (nm), second column TOA irradiance# Lunar phase angle: 120
# Irradiance units: mW/m^2-micrometer

300 0.1363
301 0.1013
302 0.1276
303 0.1219
304 0.1725
305 0.1606
306 0.164
307 0.1517
308 0.1764
309 0.1779
310 0.1359
311 0.1805
312 0.2141
313 0.186
314 0.2018
315 0.1854
316 0.1909
317 0.1745
318 0.2429
319 0.1869
320 0.2059
321 0.2544
322 0.2018
323 0.2115
324 0.1973
325 0.2364
326 0.2648
327 0.3019
328 0.2931
329 0.2725
330 0.3349
331 0.3092
332 0.3062
333 0.2971
334 0.2847
335 0.3045
336 0.3104
337 0.2457
338 0.2698
339 0.2896
340 0.3016
341 0.3332
342 0.2921
343 0.3251
344 0.3268
345 0.2357
346 0.3217
347 0.2986
348 0.2963
349 0.3089
350 0.2785
351 0.3681
352 0.3285
353 0.2942
354 0.3551
355 0.3779
356 0.3543
357 0.3168
358 0.2877
359 0.2149
360 0.3676
361 0.3468
362 0.3074
363 0.3514
364 0.3319
365 0.3582
366 0.4112
367 0.4377
368 0.4222
369 0.3767
370 0.4433
371 0.3931
372 0.4547
373 0.3757
374 0.3244
375 0.331
376 0.3979
377 0.3905
378 0.4707
379 0.5054
380 0.3865
381 0.4526
382 0.4114
383 0.2951
384 0.246
385 0.3568
386 0.3755
387 0.3803
388 0.3715
389 0.3573
390 0.4569
391 0.4676
392 0.5445
393 0.4118
394 0.1794
395 0.4154
396 0.5374
397 0.2857
398 0.3212
399 0.6123
400 0.6586
401 0.6618
402 0.72
403 0.7314
404 0.7164
405 0.7002
406 0.6807
407 0.663
408 0.6724
409 0.6819
410 0.6878
411 0.6373
412 0.6633
413 0.6895
414 0.7159
415 0.7187
416 0.7206
417 0.7299
418 0.7155
419 0.7152
420 0.7159
421 0.7336
422 0.7479
423 0.7223
424 0.7137
425 0.7312
426 0.7262
427 0.7233
428 0.6966
429 0.6963
430 0.632
431 0.5278
432 0.6542
433 0.7231
434 0.7139
435 0.6992
436 0.7517
437 0.7941
438 0.7699
439 0.7404
440 0.7716
441 0.8055
442 0.8364
443 0.8623
444 0.865
445 0.8661
446 0.8519
447 0.8468
448 0.8968
449 0.9083
450 0.9179
451 0.9596
452 0.9645
453 0.9197
454 0.8966
455 0.9383
456 0.9451
457 0.9714
458 0.9723
459 0.9489
460 0.9436
461 0.9589
462 0.9746
463 0.9845
464 0.974
465 0.953
466 0.9537
467 0.9467
468 0.9423
469 0.9597
470 0.9532
471 0.94
472 0.9638
473 0.9942
474 0.9819
475 1.004
476 1.004
477 0.9911
478 1.018
479 1.018
480 1.018
481 1.014
482 1.022
483 1.013
484 1.001
485 0.9898
486 0.9011
487 0.8518
488 0.9226
489 0.9521
490 0.9917
491 1.007
492 0.9721
493 0.9706
494 0.983
495 1.007
496 1.008
497 1.006
498 0.9983
499 0.9826
500 0.9818
501 0.9669
502 0.9483
503 0.9693
504 0.9884
505 0.9851
506 1.022
507 1.039
508 1.024
509 1.01
510 0.9948
511 0.9846
512 1.005
513 0.9949
514 0.9717
515 0.9601
516 0.9755
517 0.909
518 0.8555
519 0.8886
520 0.9519
521 0.9704
522 0.9891
523 0.97
524 0.9879
525 1.019
526 1.008
527 0.924
528 0.9468
529 1.009
530 1.019
531 1.035
532 1.038
533 1.027
534 1.014
535 1.018
536 1.049
537 1.026
538 1.027
539 1.034
540 1.012
541 0.9925
542 1.015
543 1.028
544 1.037
545 1.047
546 1.051
547 1.052
548 1.041
549 1.046
550 1.06
551 1.055
552 1.06
553 1.059
554 1.057
555 1.069
556 1.064
557 1.043
558 1.032
559 1.019
560 1.006
561 1.032
562 1.042
563 1.031
564 1.037
565 1.04
566 1.032
567 1.034
568 1.053
569 1.045
570 1.044
571 1.034
572 1.037
573 1.078
574 1.084
575 1.076
576 1.061
577 1.066
578 1.069
579 1.055
580 1.064
581 1.075
582 1.081
583 1.093
584 1.095
585 1.088
586 1.069
587 1.068
588 1.083
589 1.043
590 0.9993
591 1.048
592 1.074
593 1.077
594 1.077
595 1.081
596 1.077
597 1.086
598 1.085
599 1.076
600 1.08
601 1.074
602 1.062
603 1.068
604 1.089
605 1.094
606 1.089
607 1.085
608 1.082
609 1.073
610 1.068
611 1.069
612 1.072
613 1.068
614 1.056
615 1.056
616 1.048
617 1.03
618 1.047
619 1.064
620 1.071
621 1.082
622 1.075
623 1.07
624 1.065
625 1.056
626 1.053
627 1.075
628 1.089
629 1.09
630 1.079
631 1.075
632 1.06
633 1.074
634 1.069
635 1.074
636 1.074
637 1.073
638 1.088
639 1.089
640 1.068
641 1.06
642 1.057
643 1.069
644 1.066
645 1.069
646 1.06
647 1.063
648 1.071
649 1.069
650 1.038
651 1.076
652 1.082
653 1.067
654 1.059
655 1.044
656 0.9755
657 0.8971
658 0.9935
659 1.042
660 1.047
661 1.056
662 1.063
663 1.06
664 1.049
665 1.052
666 1.056
667 1.05
668 1.048
669 1.056
670 1.054
671 1.05
672 1.046
673 1.044
674 1.042
675 1.041
676 1.04
677 1.039
678 1.038
679 1.037
680 1.037
681 1.036
682 1.036
683 1.036
684 1.035
685 1.035
686 1.036
687 1.036
688 1.036
689 1.038
690 1.044
691 1.047
692 1.042
693 1.039
694 1.041
695 1.036
696 1.035
697 1.039
698 1.025
699 1.038
700 1.042
701 1.028
702 1.022
703 1.027
704 1.032
705 1.043
706 1.037
707 1.025
708 1.027
709 1.018
710 1.012
711 1.016
712 1.003
713 0.9993
714 1.002
715 1
716 0.9971
717 1.002
718 1.001
719 0.9885
720 0.9894
721 0.9917
722 0.9926
723 0.9918
724 0.9964
725 0.9943
726 0.9864
727 0.9895
728 0.988
729 0.9702
730 0.9665
731 0.9848
732 0.9829
733 0.9826
734 0.9832
735 0.9839
736 0.9739
737 0.9715
738 0.9706
739 0.9492
740 0.951
741 0.9461
742 0.9394
743 0.954
744 0.9684
745 0.9589
746 0.9695
747 0.9662
748 0.9699
749 0.9647
750 0.9542
