# Top-of-atmosphere (TOA) lunar irradiance from Miller and Turner (2009) by 10 nm increments
# First column wavelength (nm), second column TOA irradiance# Phase angle = 105
# Units = mW/m^2-micrometer

300 0.09152
310 0.09123
320 0.1383
330 0.225
340 0.2027
350 0.1872
360 0.2471
370 0.298
380 0.2598
390 0.3073
400 0.443
410 0.4627
420 0.4817
430 0.4253
440 0.5193
450 0.6179
460 0.6353
470 0.6419
480 0.6856
490 0.668
500 0.6615
510 0.6703
520 0.6416
530 0.6871
540 0.6822
550 0.7146
560 0.6786
570 0.7039
580 0.718
590 0.6743
600 0.7287
610 0.7209
620 0.7231
630 0.7285
640 0.7211
650 0.7011
660 0.7071
670 0.7119
680 0.7006
690 0.7058
700 0.7042
710 0.684
720 0.6691
730 0.6537
740 0.6433
750 0.6456
