# Top-of-atmosphere (TOA) lunar irradiance from Miller and Turner (2009)
# First column wavelength (nm), second column TOA irradiance# Lunar phase angle: 127
# Irradiance units: mW/m^2-micrometer

300 0.161
301 0.1197
302 0.1507
303 0.144
304 0.2037
305 0.1897
306 0.1937
307 0.1792
308 0.2084
309 0.2101
310 0.1605
311 0.2132
312 0.2529
313 0.2196
314 0.2383
315 0.2189
316 0.2254
317 0.2061
318 0.2869
319 0.2207
320 0.2432
321 0.3004
322 0.2383
323 0.2498
324 0.233
325 0.2792
326 0.3127
327 0.3565
328 0.3461
329 0.3218
330 0.3955
331 0.3652
332 0.3616
333 0.3509
334 0.3362
335 0.3596
336 0.3666
337 0.2902
338 0.3186
339 0.342
340 0.3562
341 0.3934
342 0.345
343 0.3838
344 0.3858
345 0.2784
346 0.3799
347 0.3526
348 0.3498
349 0.3648
350 0.3288
351 0.4346
352 0.3878
353 0.3474
354 0.4193
355 0.4462
356 0.4184
357 0.374
358 0.3397
359 0.2537
360 0.434
361 0.4094
362 0.3629
363 0.4149
364 0.3918
365 0.4229
366 0.4854
367 0.5168
368 0.4984
369 0.4447
370 0.5234
371 0.4641
372 0.5368
373 0.4435
374 0.383
375 0.3908
376 0.4697
377 0.461
378 0.5557
379 0.5967
380 0.4562
381 0.5343
382 0.4857
383 0.3484
384 0.2904
385 0.4211
386 0.4432
387 0.4489
388 0.4385
389 0.4218
390 0.5394
391 0.552
392 0.6427
393 0.4861
394 0.2118
395 0.4903
396 0.6343
397 0.3372
398 0.3792
399 0.7227
400 0.7774
401 0.7811
402 0.8499
403 0.8633
404 0.8455
405 0.8264
406 0.8034
407 0.7826
408 0.7936
409 0.8048
410 0.8118
411 0.7521
412 0.7829
413 0.8138
414 0.8449
415 0.8482
416 0.8504
417 0.8614
418 0.8444
419 0.844
420 0.8449
421 0.8658
422 0.8826
423 0.8524
424 0.8422
425 0.8629
426 0.857
427 0.8535
428 0.822
429 0.8217
430 0.7458
431 0.6228
432 0.7719
433 0.8533
434 0.8424
435 0.825
436 0.887
437 0.9371
438 0.9085
439 0.8736
440 0.9104
441 0.9504
442 0.9869
443 1.017
444 1.021
445 1.022
446 1.005
447 0.9991
448 1.058
449 1.072
450 1.083
451 1.132
452 1.138
453 1.085
454 1.058
455 1.107
456 1.115
457 1.146
458 1.147
459 1.12
460 1.113
461 1.131
462 1.15
463 1.161
464 1.149
465 1.124
466 1.125
467 1.117
468 1.112
469 1.132
470 1.125
471 1.109
472 1.137
473 1.173
474 1.158
475 1.184
476 1.185
477 1.169
478 1.201
479 1.201
480 1.201
481 1.196
482 1.206
483 1.195
484 1.181
485 1.167
486 1.063
487 1.005
488 1.088
489 1.123
490 1.17
491 1.187
492 1.147
493 1.145
494 1.159
495 1.188
496 1.189
497 1.186
498 1.177
499 1.159
500 1.158
501 1.14
502 1.118
503 1.143
504 1.166
505 1.162
506 1.206
507 1.225
508 1.208
509 1.191
510 1.173
511 1.161
512 1.185
513 1.173
514 1.146
515 1.132
516 1.15
517 1.072
518 1.009
519 1.048
520 1.123
521 1.144
522 1.166
523 1.144
524 1.165
525 1.201
526 1.189
527 1.09
528 1.117
529 1.189
530 1.202
531 1.22
532 1.224
533 1.211
534 1.195
535 1.2
536 1.236
537 1.209
538 1.21
539 1.219
540 1.193
541 1.17
542 1.197
543 1.212
544 1.223
545 1.235
546 1.239
547 1.24
548 1.227
549 1.234
550 1.25
551 1.244
552 1.25
553 1.249
554 1.246
555 1.26
556 1.255
557 1.23
558 1.216
559 1.201
560 1.186
561 1.216
562 1.228
563 1.215
564 1.222
565 1.227
566 1.217
567 1.219
568 1.241
569 1.232
570 1.23
571 1.219
572 1.222
573 1.27
574 1.278
575 1.268
576 1.25
577 1.257
578 1.26
579 1.244
580 1.255
581 1.267
582 1.274
583 1.288
584 1.29
585 1.282
586 1.26
587 1.259
588 1.277
589 1.229
590 1.178
591 1.236
592 1.266
593 1.27
594 1.269
595 1.274
596 1.27
597 1.28
598 1.279
599 1.269
600 1.273
601 1.266
602 1.252
603 1.259
604 1.283
605 1.289
606 1.283
607 1.279
608 1.275
609 1.264
610 1.259
611 1.26
612 1.263
613 1.259
614 1.244
615 1.244
616 1.236
617 1.214
618 1.234
619 1.253
620 1.262
621 1.275
622 1.267
623 1.26
624 1.254
625 1.244
626 1.241
627 1.266
628 1.283
629 1.285
630 1.271
631 1.266
632 1.249
633 1.266
634 1.26
635 1.265
636 1.266
637 1.264
638 1.282
639 1.283
640 1.258
641 1.249
642 1.245
643 1.259
644 1.256
645 1.259
646 1.249
647 1.252
648 1.262
649 1.259
650 1.223
651 1.267
652 1.275
653 1.257
654 1.248
655 1.229
656 1.149
657 1.057
658 1.17
659 1.228
660 1.233
661 1.244
662 1.253
663 1.249
664 1.235
665 1.239
666 1.243
667 1.237
668 1.235
669 1.243
670 1.241
671 1.237
672 1.232
673 1.229
674 1.228
675 1.226
676 1.225
677 1.224
678 1.223
679 1.222
680 1.221
681 1.221
682 1.22
683 1.22
684 1.22
685 1.22
686 1.22
687 1.22
688 1.22
689 1.223
690 1.23
691 1.233
692 1.227
693 1.223
694 1.226
695 1.22
696 1.219
697 1.224
698 1.208
699 1.223
700 1.227
701 1.211
702 1.203
703 1.209
704 1.215
705 1.229
706 1.221
707 1.207
708 1.209
709 1.199
710 1.191
711 1.196
712 1.181
713 1.177
714 1.18
715 1.178
716 1.174
717 1.18
718 1.179
719 1.164
720 1.165
721 1.168
722 1.169
723 1.168
724 1.173
725 1.171
726 1.161
727 1.165
728 1.163
729 1.142
730 1.138
731 1.159
732 1.157
733 1.157
734 1.158
735 1.158
736 1.147
737 1.144
738 1.143
739 1.117
740 1.12
741 1.114
742 1.106
743 1.123
744 1.14
745 1.129
746 1.141
747 1.137
748 1.142
749 1.136
750 1.123
