# Top-of-atmosphere (TOA) lunar irradiance from Miller and Turner (2009)
# First column wavelength (nm), second column TOA irradiance# Lunar phase angle: 101
# Irradiance units: mW/m^2-micrometer

300 0.0817
301 0.06075
302 0.07649
303 0.0731
304 0.1034
305 0.09629
306 0.0983
307 0.09093
308 0.1058
309 0.1067
310 0.08145
311 0.1082
312 0.1284
313 0.1115
314 0.121
315 0.1112
316 0.1145
317 0.1046
318 0.1457
319 0.112
320 0.1235
321 0.1526
322 0.121
323 0.1268
324 0.1183
325 0.1418
326 0.1588
327 0.181
328 0.1758
329 0.1634
330 0.2009
331 0.1855
332 0.1837
333 0.1782
334 0.1708
335 0.1827
336 0.1862
337 0.1474
338 0.1618
339 0.1737
340 0.1809
341 0.1999
342 0.1753
343 0.195
344 0.196
345 0.1414
346 0.193
347 0.1792
348 0.1778
349 0.1854
350 0.1671
351 0.2209
352 0.1971
353 0.1766
354 0.2131
355 0.2268
356 0.2126
357 0.1901
358 0.1727
359 0.1289
360 0.2206
361 0.2081
362 0.1845
363 0.2109
364 0.1992
365 0.215
366 0.2468
367 0.2628
368 0.2534
369 0.2261
370 0.2661
371 0.236
372 0.273
373 0.2255
374 0.1947
375 0.1987
376 0.2389
377 0.2345
378 0.2826
379 0.3035
380 0.232
381 0.2717
382 0.247
383 0.1772
384 0.1477
385 0.2142
386 0.2255
387 0.2284
388 0.2231
389 0.2146
390 0.2744
391 0.2808
392 0.327
393 0.2473
394 0.1077
395 0.2495
396 0.3228
397 0.1716
398 0.1929
399 0.3678
400 0.3956
401 0.3975
402 0.4325
403 0.4394
404 0.4304
405 0.4206
406 0.4089
407 0.3983
408 0.404
409 0.4097
410 0.4132
411 0.3829
412 0.3986
413 0.4143
414 0.4301
415 0.4318
416 0.433
417 0.4386
418 0.4299
419 0.4298
420 0.4302
421 0.4409
422 0.4494
423 0.4341
424 0.4289
425 0.4395
426 0.4365
427 0.4347
428 0.4187
429 0.4185
430 0.3799
431 0.3173
432 0.3932
433 0.4346
434 0.4291
435 0.4203
436 0.4519
437 0.4774
438 0.4629
439 0.4451
440 0.4638
441 0.4842
442 0.5028
443 0.5184
444 0.5201
445 0.5207
446 0.5122
447 0.5091
448 0.5392
449 0.5462
450 0.5519
451 0.577
452 0.58
453 0.553
454 0.5392
455 0.5642
456 0.5684
457 0.5842
458 0.5848
459 0.5707
460 0.5675
461 0.5767
462 0.5862
463 0.5921
464 0.5859
465 0.5732
466 0.5737
467 0.5695
468 0.5668
469 0.5773
470 0.5734
471 0.5655
472 0.5798
473 0.5981
474 0.5907
475 0.6041
476 0.6041
477 0.5963
478 0.6123
479 0.6125
480 0.6125
481 0.61
482 0.615
483 0.6098
484 0.6023
485 0.5956
486 0.5423
487 0.5126
488 0.5552
489 0.573
490 0.5968
491 0.6059
492 0.5851
493 0.5841
494 0.5916
495 0.6063
496 0.607
497 0.6052
498 0.6009
499 0.5915
500 0.591
501 0.582
502 0.5709
503 0.5835
504 0.595
505 0.5931
506 0.6154
507 0.6254
508 0.6168
509 0.6081
510 0.599
511 0.5928
512 0.6051
513 0.599
514 0.5851
515 0.5781
516 0.5874
517 0.5474
518 0.5152
519 0.5351
520 0.5733
521 0.5844
522 0.5957
523 0.5842
524 0.595
525 0.6136
526 0.6074
527 0.5565
528 0.5703
529 0.6075
530 0.614
531 0.6233
532 0.6251
533 0.6187
534 0.6106
535 0.613
536 0.6317
537 0.6179
538 0.6185
539 0.6231
540 0.6096
541 0.598
542 0.6116
543 0.6192
544 0.625
545 0.6311
546 0.6332
547 0.6338
548 0.627
549 0.6306
550 0.6387
551 0.636
552 0.6388
553 0.6383
554 0.6371
555 0.6441
556 0.6415
557 0.6288
558 0.6217
559 0.6142
560 0.6065
561 0.6218
562 0.628
563 0.6214
564 0.625
565 0.6272
566 0.6222
567 0.6231
568 0.6347
569 0.6302
570 0.6291
571 0.6234
572 0.6249
573 0.6498
574 0.6535
575 0.6485
576 0.6395
577 0.6427
578 0.6445
579 0.6363
580 0.6417
581 0.6481
582 0.6517
583 0.6589
584 0.6601
585 0.6558
586 0.6446
587 0.6439
588 0.6533
589 0.6289
590 0.6027
591 0.6323
592 0.6478
593 0.6498
594 0.6495
595 0.6521
596 0.6498
597 0.6549
598 0.6547
599 0.6493
600 0.6514
601 0.648
602 0.6409
603 0.6443
604 0.6567
605 0.6598
606 0.6567
607 0.6549
608 0.6529
609 0.6473
610 0.6444
611 0.6453
612 0.6469
613 0.6445
614 0.637
615 0.6372
616 0.6327
617 0.6215
618 0.6318
619 0.6418
620 0.6464
621 0.6529
622 0.649
623 0.6455
624 0.6425
625 0.6373
626 0.6356
627 0.6487
628 0.6573
629 0.6582
630 0.6512
631 0.6488
632 0.6401
633 0.6486
634 0.6456
635 0.6483
636 0.6487
637 0.6475
638 0.657
639 0.6573
640 0.6447
641 0.6402
642 0.6381
643 0.6454
644 0.6438
645 0.6453
646 0.6403
647 0.6416
648 0.6467
649 0.6454
650 0.6268
651 0.6496
652 0.6534
653 0.6445
654 0.6397
655 0.6302
656 0.5891
657 0.5418
658 0.6
659 0.6296
660 0.6322
661 0.6381
662 0.6423
663 0.6406
664 0.6334
665 0.6355
666 0.6376
667 0.6345
668 0.6332
669 0.6377
670 0.6366
671 0.6346
672 0.632
673 0.6305
674 0.6298
675 0.629
676 0.6284
677 0.6278
678 0.6273
679 0.6269
680 0.6265
681 0.6262
682 0.626
683 0.6258
684 0.6258
685 0.6258
686 0.6258
687 0.626
688 0.6262
689 0.6275
690 0.6312
691 0.6326
692 0.6297
693 0.6278
694 0.6292
695 0.626
696 0.6258
697 0.628
698 0.6198
699 0.6277
700 0.6297
701 0.6215
702 0.6178
703 0.6207
704 0.624
705 0.6307
706 0.627
707 0.6197
708 0.6207
709 0.6155
710 0.6117
711 0.6144
712 0.6063
713 0.6042
714 0.6058
715 0.6049
716 0.6029
717 0.6058
718 0.6054
719 0.5978
720 0.5984
721 0.5998
722 0.6003
723 0.5998
724 0.6027
725 0.6014
726 0.5966
727 0.5985
728 0.5976
729 0.5869
730 0.5846
731 0.5957
732 0.5946
733 0.5944
734 0.5948
735 0.5952
736 0.5892
737 0.5877
738 0.5872
739 0.5743
740 0.5754
741 0.5724
742 0.5684
743 0.5772
744 0.586
745 0.5802
746 0.5867
747 0.5847
748 0.5869
749 0.5838
750 0.5774
