# Top-of-atmosphere (TOA) lunar irradiance from Miller and Turner (2009) by 10 nm increments
# First column wavelength (nm), second column TOA irradiance# Phase angle = 169
# Units = mW/m^2-micrometer

300 0.4737
310 0.4711
320 0.7126
330 1.156
340 1.039
350 0.9574
360 1.261
370 1.517
380 1.32
390 1.557
400 2.24
410 2.334
420 2.424
430 2.135
440 2.601
450 3.088
460 3.167
470 3.193
480 3.402
490 3.307
500 3.267
510 3.303
520 3.154
530 3.37
540 3.338
550 3.489
560 3.305
570 3.42
580 3.48
590 3.261
600 3.516
610 3.47
620 3.472
630 3.49
640 3.447
650 3.343
660 3.364
670 3.379
680 3.318
690 3.334
700 3.319
710 3.216
720 3.139
730 3.059
740 3.004
750 3.007
