# Top-of-atmosphere (TOA) lunar irradiance from Miller and Turner (2009)
# First column wavelength (nm), second column TOA irradiance# Lunar phase angle: 172
# Irradiance units: mW/m^2-micrometer

300 0.5139
301 0.382
302 0.4809
303 0.4594
304 0.6496
305 0.6049
306 0.6174
307 0.571
308 0.6638
309 0.6694
310 0.511
311 0.6787
312 0.805
313 0.699
314 0.7581
315 0.6965
316 0.7169
317 0.6552
318 0.9121
319 0.7013
320 0.7728
321 0.9544
322 0.7569
323 0.7931
324 0.7395
325 0.886
326 0.9922
327 1.131
328 1.098
329 1.02
330 1.254
331 1.157
332 1.146
333 1.112
334 1.065
335 1.139
336 1.16
337 0.9184
338 1.008
339 1.082
340 1.126
341 1.244
342 1.091
343 1.213
344 1.219
345 0.8794
346 1.2
347 1.113
348 1.104
349 1.151
350 1.038
351 1.371
352 1.223
353 1.095
354 1.322
355 1.406
356 1.318
357 1.178
358 1.07
359 0.7988
360 1.366
361 1.289
362 1.142
363 1.305
364 1.232
365 1.33
366 1.526
367 1.624
368 1.566
369 1.397
370 1.644
371 1.457
372 1.685
373 1.392
374 1.202
375 1.226
376 1.473
377 1.446
378 1.742
379 1.87
380 1.43
381 1.674
382 1.521
383 1.091
384 0.9091
385 1.318
386 1.387
387 1.404
388 1.372
389 1.319
390 1.686
391 1.725
392 2.009
393 1.519
394 0.6614
395 1.531
396 1.98
397 1.053
398 1.183
399 2.255
400 2.425
401 2.436
402 2.65
403 2.691
404 2.635
405 2.575
406 2.503
407 2.437
408 2.471
409 2.505
410 2.526
411 2.34
412 2.435
413 2.531
414 2.627
415 2.637
416 2.643
417 2.677
418 2.623
419 2.621
420 2.623
421 2.688
422 2.739
423 2.645
424 2.613
425 2.676
426 2.657
427 2.646
428 2.548
429 2.546
430 2.31
431 1.929
432 2.39
433 2.641
434 2.607
435 2.553
436 2.744
437 2.898
438 2.809
439 2.701
440 2.814
441 2.937
442 3.049
443 3.142
444 3.152
445 3.155
446 3.102
447 3.083
448 3.264
449 3.305
450 3.34
451 3.49
452 3.507
453 3.344
454 3.259
455 3.41
456 3.434
457 3.528
458 3.531
459 3.445
460 3.425
461 3.48
462 3.536
463 3.571
464 3.532
465 3.455
466 3.457
467 3.431
468 3.414
469 3.476
470 3.452
471 3.403
472 3.488
473 3.597
474 3.552
475 3.631
476 3.631
477 3.583
478 3.678
479 3.679
480 3.677
481 3.661
482 3.69
483 3.658
484 3.613
485 3.571
486 3.251
487 3.072
488 3.327
489 3.432
490 3.574
491 3.627
492 3.502
493 3.495
494 3.539
495 3.626
496 3.629
497 3.618
498 3.591
499 3.534
500 3.53
501 3.475
502 3.408
503 3.482
504 3.55
505 3.538
506 3.67
507 3.729
508 3.676
509 3.624
510 3.568
511 3.531
512 3.603
513 3.566
514 3.482
515 3.44
516 3.494
517 3.255
518 3.063
519 3.18
520 3.406
521 3.471
522 3.537
523 3.468
524 3.532
525 3.641
526 3.603
527 3.301
528 3.382
529 3.601
530 3.639
531 3.693
532 3.703
533 3.664
534 3.615
535 3.628
536 3.738
537 3.656
538 3.658
539 3.684
540 3.603
541 3.534
542 3.613
543 3.658
544 3.691
545 3.726
546 3.737
547 3.74
548 3.699
549 3.719
550 3.765
551 3.749
552 3.764
553 3.761
554 3.752
555 3.793
556 3.776
557 3.701
558 3.658
559 3.613
560 3.567
561 3.656
562 3.691
563 3.651
564 3.672
565 3.683
566 3.653
567 3.658
568 3.725
569 3.698
570 3.69
571 3.655
572 3.664
573 3.808
574 3.829
575 3.799
576 3.745
577 3.763
578 3.773
579 3.724
580 3.754
581 3.791
582 3.811
583 3.852
584 3.858
585 3.832
586 3.765
587 3.76
588 3.814
589 3.671
590 3.517
591 3.689
592 3.778
593 3.789
594 3.786
595 3.8
596 3.786
597 3.814
598 3.812
599 3.78
600 3.791
601 3.77
602 3.728
603 3.747
604 3.818
605 3.835
606 3.816
607 3.805
608 3.792
609 3.759
610 3.741
611 3.745
612 3.754
613 3.738
614 3.694
615 3.694
616 3.667
617 3.601
618 3.66
619 3.717
620 3.743
621 3.779
622 3.756
623 3.735
624 3.716
625 3.685
626 3.675
627 3.749
628 3.798
629 3.802
630 3.761
631 3.746
632 3.694
633 3.743
634 3.724
635 3.739
636 3.74
637 3.733
638 3.787
639 3.787
640 3.713
641 3.687
642 3.674
643 3.715
644 3.705
645 3.712
646 3.682
647 3.689
648 3.718
649 3.709
650 3.601
651 3.731
652 3.752
653 3.7
654 3.672
655 3.616
656 3.38
657 3.107
658 3.44
659 3.609
660 3.623
661 3.656
662 3.679
663 3.668
664 3.626
665 3.637
666 3.648
667 3.629
668 3.621
669 3.646
670 3.638
671 3.626
672 3.611
673 3.601
674 3.596
675 3.591
676 3.586
677 3.582
678 3.578
679 3.575
680 3.572
681 3.569
682 3.567
683 3.565
684 3.564
685 3.563
686 3.562
687 3.562
688 3.562
689 3.569
690 3.589
691 3.596
692 3.578
693 3.567
694 3.574
695 3.555
696 3.553
697 3.564
698 3.517
699 3.561
700 3.571
701 3.524
702 3.502
703 3.517
704 3.535
705 3.572
706 3.55
707 3.508
708 3.513
709 3.483
710 3.46
711 3.474
712 3.428
713 3.415
714 3.424
715 3.417
716 3.405
717 3.421
718 3.418
719 3.374
720 3.376
721 3.383
722 3.385
723 3.382
724 3.397
725 3.389
726 3.361
727 3.371
728 3.365
729 3.304
730 3.29
731 3.351
732 3.344
733 3.343
734 3.344
735 3.345
736 3.311
737 3.301
738 3.298
739 3.224
740 3.229
741 3.212
742 3.189
743 3.237
744 3.286
745 3.253
746 3.288
747 3.276
748 3.288
749 3.269
750 3.233
