# Top-of-atmosphere (TOA) lunar irradiance from Miller and Turner (2009)
# First column wavelength (nm), second column TOA irradiance# Lunar phase angle: 20
# Irradiance units: mW/m^2-micrometer

300 0.0009041
301 0.0006726
302 0.0008474
303 0.0008101
304 0.001146
305 0.001068
306 0.001091
307 0.00101
308 0.001175
309 0.001186
310 0.0009059
311 0.001204
312 0.001429
313 0.001242
314 0.001348
315 0.001239
316 0.001277
317 0.001168
318 0.001627
319 0.001252
320 0.00138
321 0.001706
322 0.001354
323 0.00142
324 0.001325
325 0.001589
326 0.001781
327 0.002031
328 0.001973
329 0.001835
330 0.002257
331 0.002085
332 0.002066
333 0.002006
334 0.001923
335 0.002058
336 0.002099
337 0.001662
338 0.001826
339 0.001961
340 0.002043
341 0.002258
342 0.001981
343 0.002206
344 0.002218
345 0.001601
346 0.002187
347 0.002031
348 0.002016
349 0.002103
350 0.001897
351 0.002508
352 0.002239
353 0.002007
354 0.002424
355 0.00258
356 0.002421
357 0.002165
358 0.001968
359 0.00147
360 0.002517
361 0.002375
362 0.002107
363 0.00241
364 0.002277
365 0.002459
366 0.002824
367 0.003008
368 0.002903
369 0.002591
370 0.003051
371 0.002707
372 0.003133
373 0.00259
374 0.002238
375 0.002284
376 0.002747
377 0.002698
378 0.003254
379 0.003495
380 0.002674
381 0.003133
382 0.00285
383 0.002045
384 0.001706
385 0.002475
386 0.002606
387 0.002641
388 0.002582
389 0.002484
390 0.003179
391 0.003255
392 0.003792
393 0.002869
394 0.001251
395 0.002897
396 0.00375
397 0.001995
398 0.002244
399 0.004279
400 0.004606
401 0.00463
402 0.00504
403 0.005123
404 0.00502
405 0.004909
406 0.004775
407 0.004654
408 0.004722
409 0.004791
410 0.004835
411 0.004482
412 0.004668
413 0.004855
414 0.005043
415 0.005066
416 0.005082
417 0.00515
418 0.005051
419 0.005052
420 0.00506
421 0.005187
422 0.005291
423 0.005113
424 0.005054
425 0.005181
426 0.005149
427 0.00513
428 0.004944
429 0.004944
430 0.00449
431 0.003752
432 0.004652
433 0.005145
434 0.005082
435 0.00498
436 0.005358
437 0.005663
438 0.005493
439 0.005285
440 0.005511
441 0.005756
442 0.00598
443 0.006168
444 0.006191
445 0.006202
446 0.006104
447 0.00607
448 0.006432
449 0.006518
450 0.006591
451 0.006893
452 0.006932
453 0.006614
454 0.006452
455 0.006755
456 0.006808
457 0.007
458 0.007011
459 0.006846
460 0.006811
461 0.006925
462 0.007042
463 0.007117
464 0.007046
465 0.006897
466 0.006906
467 0.006859
468 0.00683
469 0.00696
470 0.006917
471 0.006825
472 0.007001
473 0.007226
474 0.00714
475 0.007305
476 0.00731
477 0.007219
478 0.007416
479 0.007423
480 0.007426
481 0.007399
482 0.007463
483 0.007404
484 0.007318
485 0.007239
486 0.006594
487 0.006236
488 0.006759
489 0.006978
490 0.007273
491 0.007386
492 0.007137
493 0.007129
494 0.007224
495 0.007407
496 0.007419
497 0.007401
498 0.007352
499 0.00724
500 0.007238
501 0.007132
502 0.006999
503 0.007157
504 0.007302
505 0.007282
506 0.00756
507 0.007687
508 0.007585
509 0.007482
510 0.007373
511 0.007301
512 0.007456
513 0.007385
514 0.007217
515 0.007135
516 0.007253
517 0.006762
518 0.006367
519 0.006617
520 0.007093
521 0.007234
522 0.007377
523 0.007239
524 0.007376
525 0.007611
526 0.007537
527 0.00691
528 0.007085
529 0.00755
530 0.007635
531 0.007755
532 0.007781
533 0.007705
534 0.007608
535 0.007642
536 0.007879
537 0.007711
538 0.007722
539 0.007784
540 0.007619
541 0.007478
542 0.007651
543 0.007751
544 0.007828
545 0.007907
546 0.007937
547 0.00795
548 0.007868
549 0.007917
550 0.008023
551 0.007993
552 0.008033
553 0.008031
554 0.008019
555 0.008112
556 0.008082
557 0.007928
558 0.007842
559 0.007751
560 0.007657
561 0.007855
562 0.007938
563 0.007858
564 0.007907
565 0.007939
566 0.00788
567 0.007895
568 0.008046
569 0.007993
570 0.007983
571 0.007914
572 0.007939
573 0.008258
574 0.00831
575 0.00825
576 0.00814
577 0.008185
578 0.008212
579 0.008112
580 0.008185
581 0.00827
582 0.008321
583 0.008416
584 0.008436
585 0.008386
586 0.008247
587 0.008242
588 0.008367
589 0.008058
590 0.007726
591 0.00811
592 0.008313
593 0.008343
594 0.008342
595 0.008381
596 0.008356
597 0.008425
598 0.008427
599 0.008362
600 0.008393
601 0.008353
602 0.008266
603 0.008314
604 0.008479
605 0.008523
606 0.008487
607 0.008468
608 0.008446
609 0.008378
610 0.008345
611 0.00836
612 0.008386
613 0.008359
614 0.008266
615 0.008272
616 0.008218
617 0.008077
618 0.008215
619 0.008349
620 0.008413
621 0.008502
622 0.008455
623 0.008415
624 0.00838
625 0.008316
626 0.008298
627 0.008474
628 0.00859
629 0.008606
630 0.00852
631 0.008491
632 0.008382
633 0.008498
634 0.008463
635 0.008503
636 0.008512
637 0.008501
638 0.00863
639 0.008638
640 0.008477
641 0.008422
642 0.008398
643 0.008499
644 0.008482
645 0.008506
646 0.008444
647 0.008466
648 0.008538
649 0.008525
650 0.008284
651 0.008588
652 0.008644
653 0.00853
654 0.008472
655 0.00835
656 0.007809
657 0.007185
658 0.007962
659 0.008358
660 0.008397
661 0.00848
662 0.00854
663 0.008521
664 0.00843
665 0.008463
666 0.008495
667 0.008457
668 0.008445
669 0.00851
670 0.008498
671 0.008476
672 0.008446
673 0.008431
674 0.008424
675 0.008419
676 0.008415
677 0.008411
678 0.008409
679 0.008407
680 0.008406
681 0.008407
682 0.008408
683 0.00841
684 0.008413
685 0.008418
686 0.008423
687 0.008429
688 0.008436
689 0.008459
690 0.008512
691 0.008535
692 0.0085
693 0.00848
694 0.008503
695 0.008464
696 0.008465
697 0.0085
698 0.008393
699 0.008504
700 0.008536
701 0.008428
702 0.008383
703 0.008426
704 0.008475
705 0.008571
706 0.008524
707 0.00843
708 0.008448
709 0.008381
710 0.008333
711 0.008374
712 0.008268
713 0.008245
714 0.008271
715 0.008262
716 0.008239
717 0.008283
718 0.008281
719 0.008182
720 0.008193
721 0.008217
722 0.008228
723 0.008226
724 0.008269
725 0.008256
726 0.008194
727 0.008225
728 0.008217
729 0.008073
730 0.008046
731 0.008202
732 0.008191
733 0.008193
734 0.008202
735 0.008213
736 0.008134
737 0.008117
738 0.008115
739 0.007939
740 0.007959
741 0.007922
742 0.00787
743 0.007997
744 0.008122
745 0.008046
746 0.00814
747 0.008116
748 0.008152
749 0.008112
750 0.008028
