# Top-of-atmosphere (TOA) lunar irradiance from Miller and Turner (2009) by 10 nm increments
# First column wavelength (nm), second column TOA irradiance# Phase angle = 11
# Units = mW/m^2-micrometer

300 0.0004701
310 0.0004707
320 0.0007166
330 0.001171
340 0.001059
350 0.0009821
360 0.001302
370 0.001577
380 0.001381
390 0.00164
400 0.002374
410 0.00249
420 0.002604
430 0.002309
440 0.002831
450 0.003383
460 0.003493
470 0.003544
480 0.003802
490 0.00372
500 0.003699
510 0.003765
520 0.003618
530 0.003892
540 0.00388
550 0.004082
560 0.003893
570 0.004055
580 0.004154
590 0.003918
600 0.004252
610 0.004224
620 0.004255
630 0.004305
640 0.00428
650 0.004179
660 0.004232
670 0.004279
680 0.004229
690 0.004279
700 0.004287
710 0.004182
720 0.004108
730 0.004031
740 0.003983
750 0.004015
