# Top-of-atmosphere (TOA) lunar irradiance from Miller and Turner (2009)
# First column wavelength (nm), second column TOA irradiance# Lunar phase angle: 65
# Irradiance units: mW/m^2-micrometer

300 0.01896
301 0.0141
302 0.01775
303 0.01697
304 0.024
305 0.02236
306 0.02283
307 0.02112
308 0.02457
309 0.02479
310 0.01893
311 0.02515
312 0.02984
313 0.02592
314 0.02813
315 0.02585
316 0.02662
317 0.02434
318 0.0339
319 0.02608
320 0.02875
321 0.03552
322 0.02818
323 0.02954
324 0.02755
325 0.03303
326 0.037
327 0.04219
328 0.04097
329 0.0381
330 0.04684
331 0.04325
332 0.04284
333 0.04158
334 0.03984
335 0.04263
336 0.04346
337 0.03441
338 0.03779
339 0.04057
340 0.04226
341 0.04669
342 0.04095
343 0.04557
344 0.04581
345 0.03306
346 0.04513
347 0.04189
348 0.04157
349 0.04336
350 0.03909
351 0.05167
352 0.04612
353 0.04132
354 0.04988
355 0.05309
356 0.04979
357 0.04452
358 0.04045
359 0.03021
360 0.0517
361 0.04877
362 0.04324
363 0.04945
364 0.04671
365 0.05042
366 0.05789
367 0.06164
368 0.05946
369 0.05306
370 0.06246
371 0.05539
372 0.06409
373 0.05296
374 0.04574
375 0.04668
376 0.05612
377 0.05509
378 0.06642
379 0.07133
380 0.05455
381 0.06389
382 0.0581
383 0.04168
384 0.03474
385 0.0504
386 0.05305
387 0.05374
388 0.05252
389 0.05052
390 0.06462
391 0.06614
392 0.07703
393 0.05827
394 0.02539
395 0.05879
396 0.07608
397 0.04045
398 0.04549
399 0.08673
400 0.09331
401 0.09377
402 0.102
403 0.1037
404 0.1016
405 0.09929
406 0.09654
407 0.09406
408 0.0954
409 0.09676
410 0.09762
411 0.09047
412 0.09419
413 0.09792
414 0.1017
415 0.1021
416 0.1024
417 0.1037
418 0.1017
419 0.1017
420 0.1018
421 0.1043
422 0.1064
423 0.1028
424 0.1016
425 0.1041
426 0.1034
427 0.103
428 0.0992
429 0.09918
430 0.09004
431 0.07521
432 0.09323
433 0.1031
434 0.1018
435 0.0997
436 0.1072
437 0.1133
438 0.1098
439 0.1056
440 0.1101
441 0.115
442 0.1194
443 0.1231
444 0.1236
445 0.1237
446 0.1217
447 0.121
448 0.1282
449 0.1299
450 0.1312
451 0.1372
452 0.138
453 0.1316
454 0.1283
455 0.1343
456 0.1353
457 0.1391
458 0.1392
459 0.1359
460 0.1352
461 0.1374
462 0.1397
463 0.1411
464 0.1396
465 0.1367
466 0.1368
467 0.1358
468 0.1352
469 0.1377
470 0.1368
471 0.1349
472 0.1384
473 0.1428
474 0.141
475 0.1442
476 0.1443
477 0.1424
478 0.1463
479 0.1464
480 0.1464
481 0.1458
482 0.147
483 0.1458
484 0.144
485 0.1424
486 0.1297
487 0.1226
488 0.1329
489 0.1371
490 0.1429
491 0.145
492 0.1401
493 0.1399
494 0.1417
495 0.1452
496 0.1454
497 0.145
498 0.144
499 0.1418
500 0.1417
501 0.1396
502 0.1369
503 0.14
504 0.1427
505 0.1423
506 0.1477
507 0.1501
508 0.1481
509 0.146
510 0.1438
511 0.1424
512 0.1454
513 0.1439
514 0.1406
515 0.139
516 0.1412
517 0.1316
518 0.1239
519 0.1287
520 0.1379
521 0.1406
522 0.1433
523 0.1406
524 0.1432
525 0.1477
526 0.1462
527 0.134
528 0.1374
529 0.1463
530 0.1479
531 0.1502
532 0.1507
533 0.1491
534 0.1472
535 0.1478
536 0.1524
537 0.1491
538 0.1492
539 0.1503
540 0.1471
541 0.1443
542 0.1476
543 0.1495
544 0.1509
545 0.1524
546 0.153
547 0.1531
548 0.1515
549 0.1524
550 0.1544
551 0.1538
552 0.1545
553 0.1544
554 0.1541
555 0.1558
556 0.1552
557 0.1522
558 0.1505
559 0.1487
560 0.1468
561 0.1506
562 0.1521
563 0.1505
564 0.1514
565 0.152
566 0.1508
567 0.151
568 0.1539
569 0.1528
570 0.1526
571 0.1512
572 0.1516
573 0.1577
574 0.1586
575 0.1574
576 0.1552
577 0.1561
578 0.1565
579 0.1545
580 0.1559
581 0.1575
582 0.1584
583 0.1601
584 0.1605
585 0.1594
586 0.1567
587 0.1566
588 0.1589
589 0.153
590 0.1466
591 0.1539
592 0.1577
593 0.1582
594 0.1581
595 0.1588
596 0.1583
597 0.1595
598 0.1595
599 0.1582
600 0.1588
601 0.1579
602 0.1563
603 0.1571
604 0.1602
605 0.1609
606 0.1602
607 0.1598
608 0.1593
609 0.158
610 0.1573
611 0.1575
612 0.158
613 0.1574
614 0.1556
615 0.1557
616 0.1546
617 0.1519
618 0.1544
619 0.1569
620 0.1581
621 0.1597
622 0.1587
623 0.1579
624 0.1572
625 0.156
626 0.1556
627 0.1588
628 0.1609
629 0.1612
630 0.1595
631 0.1589
632 0.1568
633 0.1589
634 0.1582
635 0.1589
636 0.159
637 0.1588
638 0.1611
639 0.1612
640 0.1582
641 0.1571
642 0.1566
643 0.1584
644 0.158
645 0.1584
646 0.1572
647 0.1576
648 0.1589
649 0.1586
650 0.154
651 0.1596
652 0.1606
653 0.1585
654 0.1573
655 0.155
656 0.1449
657 0.1333
658 0.1476
659 0.1549
660 0.1556
661 0.1571
662 0.1581
663 0.1577
664 0.156
665 0.1566
666 0.1571
667 0.1563
668 0.1561
669 0.1572
670 0.1569
671 0.1565
672 0.1559
673 0.1555
674 0.1554
675 0.1552
676 0.1551
677 0.155
678 0.1549
679 0.1548
680 0.1547
681 0.1547
682 0.1546
683 0.1546
684 0.1546
685 0.1547
686 0.1547
687 0.1548
688 0.1548
689 0.1552
690 0.1561
691 0.1565
692 0.1558
693 0.1554
694 0.1557
695 0.155
696 0.1549
697 0.1555
698 0.1535
699 0.1555
700 0.156
701 0.154
702 0.1531
703 0.1539
704 0.1547
705 0.1564
706 0.1555
707 0.1537
708 0.154
709 0.1527
710 0.1518
711 0.1525
712 0.1505
713 0.15
714 0.1504
715 0.1502
716 0.1498
717 0.1505
718 0.1504
719 0.1486
720 0.1487
721 0.1491
722 0.1493
723 0.1492
724 0.1499
725 0.1496
726 0.1484
727 0.1489
728 0.1487
729 0.1461
730 0.1456
731 0.1483
732 0.1481
733 0.1481
734 0.1482
735 0.1483
736 0.1468
737 0.1465
738 0.1464
739 0.1432
740 0.1435
741 0.1428
742 0.1418
743 0.144
744 0.1462
745 0.1448
746 0.1464
747 0.146
748 0.1466
749 0.1458
750 0.1442
