# Top-of-atmosphere (TOA) lunar irradiance from Miller and Turner (2009) by 10 nm increments
# First column wavelength (nm), second column TOA irradiance# Phase angle = 129
# Units = mW/m^2-micrometer

300 0.1688
310 0.1683
320 0.2551
330 0.4148
340 0.3735
350 0.3448
360 0.4551
370 0.5488
380 0.4784
390 0.5656
400 0.8151
410 0.8511
420 0.8859
430 0.782
440 0.9545
450 1.135
460 1.167
470 1.179
480 1.259
490 1.226
500 1.214
510 1.23
520 1.177
530 1.26
540 1.251
550 1.31
560 1.243
570 1.289
580 1.315
590 1.234
600 1.334
610 1.319
620 1.323
630 1.332
640 1.318
650 1.282
660 1.292
670 1.301
680 1.28
690 1.289
700 1.285
710 1.248
720 1.221
730 1.192
740 1.173
750 1.177
