# Top-of-atmosphere (TOA) lunar irradiance from Miller and Turner (2009) by 10 nm increments
# First column wavelength (nm), second column TOA irradiance# Phase angle = 102
# Units = mW/m^2-micrometer

300 0.08405
310 0.08379
320 0.127
330 0.2067
340 0.1861
350 0.1719
360 0.227
370 0.2738
380 0.2387
390 0.2823
400 0.407
410 0.4251
420 0.4426
430 0.3908
440 0.4771
450 0.5677
460 0.5837
470 0.5898
480 0.63
490 0.6139
500 0.6079
510 0.6161
520 0.5896
530 0.6315
540 0.627
550 0.6569
560 0.6238
570 0.647
580 0.66
590 0.6198
600 0.6699
610 0.6627
620 0.6648
630 0.6697
640 0.663
650 0.6446
660 0.6501
670 0.6546
680 0.6443
690 0.6491
700 0.6476
710 0.629
720 0.6153
730 0.6012
740 0.5916
750 0.5938
