# Top-of-atmosphere (TOA) lunar irradiance from Miller and Turner (2009) by 10 nm increments
# First column wavelength (nm), second column TOA irradiance# Phase angle = 127
# Units = mW/m^2-micrometer

300 0.161
310 0.1605
320 0.2432
330 0.3955
340 0.3562
350 0.3288
360 0.434
370 0.5234
380 0.4562
390 0.5394
400 0.7774
410 0.8118
420 0.8449
430 0.7458
440 0.9104
450 1.083
460 1.113
470 1.125
480 1.201
490 1.17
500 1.158
510 1.173
520 1.123
530 1.202
540 1.193
550 1.25
560 1.186
570 1.23
580 1.255
590 1.178
600 1.273
610 1.259
620 1.262
630 1.271
640 1.258
650 1.223
660 1.233
670 1.241
680 1.221
690 1.23
700 1.227
710 1.191
720 1.165
730 1.138
740 1.12
750 1.123
