# Top-of-atmosphere (TOA) lunar irradiance from Miller and Turner (2009)
# First column wavelength (nm), second column TOA irradiance# Lunar phase angle: 12
# Irradiance units: mW/m^2-micrometer

300 0.0005056
301 0.0003761
302 0.0004738
303 0.0004529
304 0.0006409
305 0.0005971
306 0.0006099
307 0.0005644
308 0.0006567
309 0.0006626
310 0.0005062
311 0.0006728
312 0.0007985
313 0.0006939
314 0.0007531
315 0.0006923
316 0.0007131
317 0.0006521
318 0.0009085
319 0.000699
320 0.0007708
321 0.0009526
322 0.0007561
323 0.0007927
324 0.0007396
325 0.0008868
326 0.0009937
327 0.001133
328 0.001101
329 0.001024
330 0.001259
331 0.001163
332 0.001152
333 0.001119
334 0.001072
335 0.001148
336 0.00117
337 0.0009268
338 0.001018
339 0.001093
340 0.001139
341 0.001259
342 0.001104
343 0.001229
344 0.001236
345 0.0008924
346 0.001218
347 0.001131
348 0.001123
349 0.001172
350 0.001057
351 0.001397
352 0.001247
353 0.001118
354 0.00135
355 0.001437
356 0.001348
357 0.001206
358 0.001096
359 0.0008184
360 0.001401
361 0.001322
362 0.001172
363 0.001341
364 0.001267
365 0.001368
366 0.001571
367 0.001674
368 0.001615
369 0.001441
370 0.001697
371 0.001505
372 0.001742
373 0.00144
374 0.001244
375 0.00127
376 0.001527
377 0.0015
378 0.001809
379 0.001943
380 0.001486
381 0.001741
382 0.001584
383 0.001137
384 0.0009476
385 0.001375
386 0.001448
387 0.001467
388 0.001434
389 0.00138
390 0.001765
391 0.001807
392 0.002105
393 0.001593
394 0.0006943
395 0.001608
396 0.002082
397 0.001107
398 0.001245
399 0.002375
400 0.002556
401 0.002569
402 0.002797
403 0.002842
404 0.002785
405 0.002723
406 0.002649
407 0.002581
408 0.002619
409 0.002657
410 0.002681
411 0.002485
412 0.002588
413 0.002691
414 0.002795
415 0.002808
416 0.002816
417 0.002854
418 0.002799
419 0.002799
420 0.002803
421 0.002874
422 0.002931
423 0.002832
424 0.0028
425 0.00287
426 0.002851
427 0.002841
428 0.002737
429 0.002738
430 0.002486
431 0.002077
432 0.002575
433 0.002848
434 0.002813
435 0.002756
436 0.002965
437 0.003133
438 0.003039
439 0.002924
440 0.003048
441 0.003184
442 0.003307
443 0.003411
444 0.003424
445 0.00343
446 0.003375
447 0.003356
448 0.003556
449 0.003603
450 0.003643
451 0.00381
452 0.003831
453 0.003655
454 0.003565
455 0.003732
456 0.003761
457 0.003868
458 0.003873
459 0.003781
460 0.003762
461 0.003825
462 0.003889
463 0.00393
464 0.00389
465 0.003808
466 0.003813
467 0.003786
468 0.00377
469 0.003842
470 0.003818
471 0.003766
472 0.003864
473 0.003987
474 0.00394
475 0.00403
476 0.004032
477 0.003982
478 0.004091
479 0.004094
480 0.004095
481 0.00408
482 0.004115
483 0.004082
484 0.004034
485 0.003991
486 0.003635
487 0.003437
488 0.003725
489 0.003846
490 0.004008
491 0.00407
492 0.003932
493 0.003928
494 0.00398
495 0.00408
496 0.004086
497 0.004076
498 0.004049
499 0.003987
500 0.003986
501 0.003927
502 0.003853
503 0.00394
504 0.004019
505 0.004008
506 0.004161
507 0.004231
508 0.004174
509 0.004117
510 0.004057
511 0.004017
512 0.004102
513 0.004062
514 0.003969
515 0.003924
516 0.003989
517 0.003718
518 0.003501
519 0.003638
520 0.003899
521 0.003977
522 0.004055
523 0.003979
524 0.004054
525 0.004183
526 0.004142
527 0.003797
528 0.003893
529 0.004148
530 0.004194
531 0.00426
532 0.004274
533 0.004232
534 0.004178
535 0.004197
536 0.004327
537 0.004234
538 0.00424
539 0.004273
540 0.004182
541 0.004104
542 0.0042
543 0.004254
544 0.004296
545 0.004339
546 0.004355
547 0.004362
548 0.004316
549 0.004343
550 0.004401
551 0.004384
552 0.004405
553 0.004404
554 0.004397
555 0.004448
556 0.004431
557 0.004346
558 0.004299
559 0.004249
560 0.004197
561 0.004305
562 0.00435
563 0.004306
564 0.004333
565 0.004349
566 0.004317
567 0.004325
568 0.004407
569 0.004378
570 0.004372
571 0.004334
572 0.004347
573 0.004522
574 0.00455
575 0.004517
576 0.004456
577 0.00448
578 0.004495
579 0.004439
580 0.004479
581 0.004526
582 0.004553
583 0.004605
584 0.004615
585 0.004587
586 0.004511
587 0.004508
588 0.004576
589 0.004406
590 0.004225
591 0.004434
592 0.004545
593 0.004561
594 0.00456
595 0.004581
596 0.004567
597 0.004604
598 0.004605
599 0.004569
600 0.004586
601 0.004564
602 0.004516
603 0.004542
604 0.004631
605 0.004655
606 0.004635
607 0.004624
608 0.004612
609 0.004575
610 0.004556
611 0.004564
612 0.004578
613 0.004563
614 0.004512
615 0.004515
616 0.004485
617 0.004407
618 0.004482
619 0.004555
620 0.00459
621 0.004638
622 0.004612
623 0.00459
624 0.00457
625 0.004535
626 0.004525
627 0.00462
628 0.004683
629 0.004692
630 0.004644
631 0.004629
632 0.004568
633 0.004631
634 0.004612
635 0.004634
636 0.004638
637 0.004632
638 0.004702
639 0.004705
640 0.004617
641 0.004587
642 0.004574
643 0.004628
644 0.004619
645 0.004631
646 0.004598
647 0.004609
648 0.004648
649 0.004641
650 0.004509
651 0.004674
652 0.004704
653 0.004642
654 0.00461
655 0.004543
656 0.004249
657 0.003909
658 0.004331
659 0.004546
660 0.004567
661 0.004612
662 0.004644
663 0.004633
664 0.004583
665 0.004601
666 0.004618
667 0.004597
668 0.00459
669 0.004625
670 0.004618
671 0.004606
672 0.004589
673 0.004581
674 0.004577
675 0.004574
676 0.004571
677 0.004569
678 0.004567
679 0.004566
680 0.004565
681 0.004565
682 0.004565
683 0.004566
684 0.004567
685 0.004569
686 0.004572
687 0.004575
688 0.004578
689 0.00459
690 0.004619
691 0.004631
692 0.004612
693 0.0046
694 0.004612
695 0.004591
696 0.004591
697 0.004609
698 0.004551
699 0.004611
700 0.004628
701 0.004569
702 0.004544
703 0.004567
704 0.004594
705 0.004645
706 0.00462
707 0.004568
708 0.004578
709 0.004541
710 0.004515
711 0.004537
712 0.004479
713 0.004466
714 0.004479
715 0.004474
716 0.004462
717 0.004485
718 0.004484
719 0.00443
720 0.004435
721 0.004448
722 0.004454
723 0.004452
724 0.004475
725 0.004468
726 0.004434
727 0.00445
728 0.004445
729 0.004367
730 0.004352
731 0.004437
732 0.00443
733 0.004431
734 0.004435
735 0.004441
736 0.004398
737 0.004389
738 0.004387
739 0.004292
740 0.004302
741 0.004282
742 0.004253
743 0.004321
744 0.004389
745 0.004348
746 0.004398
747 0.004384
748 0.004403
749 0.004382
750 0.004336
