# Top-of-atmosphere (TOA) lunar irradiance from Miller and Turner (2009) by 10 nm increments
# First column wavelength (nm), second column TOA irradiance# Phase angle = 0
# Units = mW/m^2-micrometer

300 0.0002299
310 0.0002295
320 0.0003484
330 0.0005675
340 0.0005119
350 0.0004734
360 0.0006258
370 0.0007558
380 0.00066
390 0.0007815
400 0.001128
410 0.00118
420 0.00123
430 0.001088
440 0.00133
450 0.001585
460 0.001631
470 0.001651
480 0.001766
490 0.001723
500 0.001708
510 0.001734
520 0.001661
530 0.001782
540 0.001771
550 0.001858
560 0.001767
570 0.001836
580 0.001875
590 0.001763
600 0.001908
610 0.00189
620 0.001899
630 0.001915
640 0.001899
650 0.001849
660 0.001867
670 0.001882
680 0.001855
690 0.001872
700 0.00187
710 0.001819
720 0.001781
730 0.001743
740 0.001718
750 0.001726
