# Top-of-atmosphere (TOA) lunar irradiance from Miller and Turner (2009) by 10 nm increments
# First column wavelength (nm), second column TOA irradiance# Phase angle = 12
# Units = mW/m^2-micrometer

300 0.0005056
310 0.0005062
320 0.0007708
330 0.001259
340 0.001139
350 0.001057
360 0.001401
370 0.001697
380 0.001486
390 0.001765
400 0.002556
410 0.002681
420 0.002803
430 0.002486
440 0.003048
450 0.003643
460 0.003762
470 0.003818
480 0.004095
490 0.004008
500 0.003986
510 0.004057
520 0.003899
530 0.004194
540 0.004182
550 0.004401
560 0.004197
570 0.004372
580 0.004479
590 0.004225
600 0.004586
610 0.004556
620 0.00459
630 0.004644
640 0.004617
650 0.004509
660 0.004567
670 0.004618
680 0.004565
690 0.004619
700 0.004628
710 0.004515
720 0.004435
730 0.004352
740 0.004302
750 0.004336
