# Top-of-atmosphere (TOA) lunar irradiance from Miller and Turner (2009) by 10 nm increments
# First column wavelength (nm), second column TOA irradiance# Phase angle = 9
# Units = mW/m^2-micrometer

300 0.00041
310 0.0004103
320 0.0006244
330 0.00102
340 0.000922
350 0.0008548
360 0.001133
370 0.001372
380 0.001201
390 0.001425
400 0.002063
410 0.002163
420 0.00226
430 0.002004
440 0.002456
450 0.002933
460 0.003028
470 0.003071
480 0.003293
490 0.003221
500 0.003202
510 0.003257
520 0.00313
530 0.003365
540 0.003354
550 0.003527
560 0.003362
570 0.003501
580 0.003585
590 0.003379
600 0.003667
610 0.003641
620 0.003667
630 0.003708
640 0.003685
650 0.003597
660 0.003641
670 0.003681
680 0.003636
690 0.003677
700 0.003683
710 0.003591
720 0.003527
730 0.003459
740 0.003417
750 0.003443
