# Top-of-atmosphere (TOA) lunar irradiance from Miller and Turner (2009)
# First column wavelength (nm), second column TOA irradiance# Lunar phase angle: 151
# Irradiance units: mW/m^2-micrometer

300 0.2946
301 0.219
302 0.2758
303 0.2635
304 0.3726
305 0.347
306 0.3542
307 0.3276
308 0.381
309 0.3842
310 0.2933
311 0.3896
312 0.4622
313 0.4014
314 0.4354
315 0.4001
316 0.4119
317 0.3764
318 0.5241
319 0.4031
320 0.4442
321 0.5486
322 0.4352
323 0.4561
324 0.4253
325 0.5096
326 0.5707
327 0.6506
328 0.6316
329 0.5872
330 0.7216
331 0.6662
332 0.6596
333 0.64
334 0.6131
335 0.6558
336 0.6684
337 0.5291
338 0.5808
339 0.6234
340 0.6492
341 0.717
342 0.6286
343 0.6994
344 0.703
345 0.5071
346 0.692
347 0.6422
348 0.6371
349 0.6643
350 0.5988
351 0.7912
352 0.7061
353 0.6324
354 0.7631
355 0.812
356 0.7613
357 0.6806
358 0.6181
359 0.4615
360 0.7896
361 0.7447
362 0.66
363 0.7545
364 0.7125
365 0.7689
366 0.8825
367 0.9394
368 0.906
369 0.8083
370 0.9511
371 0.8432
372 0.9754
373 0.8058
374 0.6957
375 0.7098
376 0.8531
377 0.8373
378 1.009
379 1.083
380 0.8283
381 0.9698
382 0.8816
383 0.6323
384 0.5269
385 0.7642
386 0.8042
387 0.8144
388 0.7955
389 0.7651
390 0.9783
391 1.001
392 1.166
393 0.8814
394 0.3839
395 0.8888
396 1.15
397 0.6112
398 0.6871
399 1.31
400 1.409
401 1.415
402 1.54
403 1.564
404 1.531
405 1.497
406 1.455
407 1.417
408 1.437
409 1.457
410 1.469
411 1.361
412 1.417
413 1.473
414 1.529
415 1.535
416 1.538
417 1.558
418 1.527
419 1.526
420 1.528
421 1.565
422 1.596
423 1.541
424 1.522
425 1.56
426 1.549
427 1.542
428 1.485
429 1.485
430 1.347
431 1.125
432 1.394
433 1.541
434 1.521
435 1.49
436 1.601
437 1.692
438 1.64
439 1.577
440 1.643
441 1.715
442 1.781
443 1.836
444 1.841
445 1.843
446 1.813
447 1.802
448 1.908
449 1.932
450 1.953
451 2.041
452 2.051
453 1.956
454 1.907
455 1.995
456 2.009
457 2.065
458 2.067
459 2.017
460 2.005
461 2.037
462 2.07
463 2.091
464 2.069
465 2.024
466 2.025
467 2.01
468 2.001
469 2.037
470 2.023
471 1.995
472 2.046
473 2.11
474 2.083
475 2.13
476 2.13
477 2.102
478 2.159
479 2.159
480 2.159
481 2.149
482 2.167
483 2.148
484 2.122
485 2.098
486 1.91
487 1.805
488 1.955
489 2.017
490 2.101
491 2.132
492 2.059
493 2.055
494 2.081
495 2.133
496 2.135
497 2.128
498 2.113
499 2.079
500 2.077
501 2.046
502 2.006
503 2.05
504 2.09
505 2.083
506 2.162
507 2.197
508 2.166
509 2.135
510 2.103
511 2.081
512 2.124
513 2.102
514 2.053
515 2.028
516 2.061
517 1.92
518 1.807
519 1.876
520 2.01
521 2.049
522 2.088
523 2.047
524 2.085
525 2.15
526 2.128
527 1.95
528 1.998
529 2.127
530 2.15
531 2.182
532 2.188
533 2.166
534 2.137
535 2.145
536 2.21
537 2.162
538 2.163
539 2.179
540 2.132
541 2.091
542 2.138
543 2.165
544 2.185
545 2.206
546 2.213
547 2.215
548 2.191
549 2.203
550 2.231
551 2.221
552 2.231
553 2.229
554 2.224
555 2.248
556 2.239
557 2.194
558 2.169
559 2.143
560 2.116
561 2.169
562 2.19
563 2.167
564 2.179
565 2.186
566 2.169
567 2.172
568 2.212
569 2.196
570 2.192
571 2.171
572 2.177
573 2.263
574 2.276
575 2.258
576 2.226
577 2.237
578 2.243
579 2.214
580 2.233
581 2.255
582 2.267
583 2.292
584 2.296
585 2.28
586 2.241
587 2.239
588 2.271
589 2.186
590 2.094
591 2.197
592 2.251
593 2.257
594 2.256
595 2.265
596 2.256
597 2.274
598 2.273
599 2.254
600 2.261
601 2.249
602 2.224
603 2.235
604 2.278
605 2.288
606 2.277
607 2.271
608 2.264
609 2.244
610 2.234
611 2.236
612 2.242
613 2.233
614 2.207
615 2.207
616 2.191
617 2.152
618 2.188
619 2.222
620 2.238
621 2.26
622 2.246
623 2.234
624 2.223
625 2.205
626 2.199
627 2.244
628 2.273
629 2.276
630 2.252
631 2.243
632 2.212
633 2.242
634 2.231
635 2.24
636 2.241
637 2.237
638 2.269
639 2.27
640 2.226
641 2.21
642 2.203
643 2.228
644 2.222
645 2.227
646 2.209
647 2.214
648 2.231
649 2.226
650 2.162
651 2.24
652 2.253
653 2.222
654 2.205
655 2.172
656 2.03
657 1.867
658 2.067
659 2.169
660 2.177
661 2.197
662 2.211
663 2.205
664 2.18
665 2.188
666 2.194
667 2.183
668 2.179
669 2.194
670 2.19
671 2.183
672 2.173
673 2.168
674 2.165
675 2.162
676 2.16
677 2.158
678 2.156
679 2.154
680 2.152
681 2.151
682 2.15
683 2.149
684 2.149
685 2.148
686 2.148
687 2.148
688 2.149
689 2.153
690 2.166
691 2.17
692 2.16
693 2.153
694 2.158
695 2.147
696 2.145
697 2.153
698 2.124
699 2.151
700 2.158
701 2.129
702 2.116
703 2.126
704 2.137
705 2.16
706 2.147
707 2.122
708 2.125
709 2.107
710 2.093
711 2.102
712 2.074
713 2.067
714 2.072
715 2.069
716 2.062
717 2.072
718 2.07
719 2.044
720 2.045
721 2.05
722 2.051
723 2.049
724 2.059
725 2.054
726 2.038
727 2.044
728 2.041
729 2.004
730 1.996
731 2.033
732 2.029
733 2.028
734 2.029
735 2.031
736 2.01
737 2.004
738 2.002
739 1.958
740 1.962
741 1.951
742 1.937
743 1.967
744 1.997
745 1.977
746 1.999
747 1.991
748 1.999
749 1.988
750 1.966
