# Top-of-atmosphere (TOA) lunar irradiance from Miller and Turner (2009)
# First column wavelength (nm), second column TOA irradiance# Lunar phase angle: 75
# Irradiance units: mW/m^2-micrometer

300 0.03106
301 0.0231
302 0.02908
303 0.02779
304 0.03932
305 0.03662
306 0.03739
307 0.03459
308 0.04023
309 0.04058
310 0.03099
311 0.04118
312 0.04886
313 0.04244
314 0.04604
315 0.04231
316 0.04357
317 0.03983
318 0.05547
319 0.04267
320 0.04703
321 0.0581
322 0.0461
323 0.04832
324 0.04507
325 0.05402
326 0.06051
327 0.06899
328 0.06699
329 0.06229
330 0.07657
331 0.07071
332 0.07003
333 0.06796
334 0.06512
335 0.06966
336 0.07102
337 0.05623
338 0.06174
339 0.06628
340 0.06904
341 0.07626
342 0.06688
343 0.07443
344 0.07482
345 0.05399
346 0.07369
347 0.0684
348 0.06787
349 0.07078
350 0.06382
351 0.08435
352 0.07529
353 0.06745
354 0.08141
355 0.08664
356 0.08125
357 0.07265
358 0.066
359 0.04928
360 0.08434
361 0.07956
362 0.07053
363 0.08065
364 0.07617
365 0.08222
366 0.09439
367 0.1005
368 0.09694
369 0.08651
370 0.1018
371 0.09029
372 0.1045
373 0.08631
374 0.07454
375 0.07606
376 0.09144
377 0.08976
378 0.1082
379 0.1162
380 0.08886
381 0.1041
382 0.09462
383 0.06788
384 0.05658
385 0.08208
386 0.08639
387 0.0875
388 0.0855
389 0.08224
390 0.1052
391 0.1077
392 0.1254
393 0.09482
394 0.04131
395 0.09566
396 0.1238
397 0.06581
398 0.07401
399 0.1411
400 0.1518
401 0.1525
402 0.166
403 0.1686
404 0.1652
405 0.1614
406 0.157
407 0.1529
408 0.1551
409 0.1573
410 0.1587
411 0.147
412 0.1531
413 0.1591
414 0.1652
415 0.1659
416 0.1663
417 0.1685
418 0.1652
419 0.1652
420 0.1654
421 0.1695
422 0.1728
423 0.1669
424 0.1649
425 0.169
426 0.1678
427 0.1672
428 0.161
429 0.161
430 0.1461
431 0.1221
432 0.1513
433 0.1672
434 0.1651
435 0.1618
436 0.1739
437 0.1838
438 0.1782
439 0.1714
440 0.1786
441 0.1865
442 0.1936
443 0.1997
444 0.2003
445 0.2006
446 0.1973
447 0.1962
448 0.2078
449 0.2105
450 0.2127
451 0.2224
452 0.2236
453 0.2132
454 0.2079
455 0.2176
456 0.2192
457 0.2253
458 0.2255
459 0.2201
460 0.2189
461 0.2225
462 0.2262
463 0.2285
464 0.2261
465 0.2212
466 0.2214
467 0.2198
468 0.2188
469 0.2229
470 0.2214
471 0.2184
472 0.2239
473 0.231
474 0.2282
475 0.2333
476 0.2334
477 0.2304
478 0.2366
479 0.2367
480 0.2367
481 0.2357
482 0.2377
483 0.2357
484 0.2329
485 0.2303
486 0.2097
487 0.1982
488 0.2147
489 0.2216
490 0.2309
491 0.2344
492 0.2264
493 0.226
494 0.2289
495 0.2346
496 0.2349
497 0.2343
498 0.2326
499 0.229
500 0.2288
501 0.2254
502 0.2211
503 0.226
504 0.2304
505 0.2297
506 0.2384
507 0.2423
508 0.239
509 0.2356
510 0.2321
511 0.2298
512 0.2345
513 0.2322
514 0.2268
515 0.2241
516 0.2278
517 0.2123
518 0.1998
519 0.2075
520 0.2224
521 0.2267
522 0.2311
523 0.2266
524 0.2309
525 0.2381
526 0.2357
527 0.216
528 0.2214
529 0.2358
530 0.2384
531 0.242
532 0.2427
533 0.2403
534 0.2371
535 0.2381
536 0.2454
537 0.2401
538 0.2403
539 0.2421
540 0.2369
541 0.2324
542 0.2377
543 0.2407
544 0.243
545 0.2453
546 0.2462
547 0.2465
548 0.2438
549 0.2452
550 0.2484
551 0.2474
552 0.2485
553 0.2483
554 0.2479
555 0.2506
556 0.2496
557 0.2447
558 0.242
559 0.2391
560 0.2361
561 0.2421
562 0.2445
563 0.242
564 0.2434
565 0.2443
566 0.2424
567 0.2427
568 0.2473
569 0.2455
570 0.2451
571 0.2429
572 0.2436
573 0.2533
574 0.2547
575 0.2528
576 0.2493
577 0.2506
578 0.2513
579 0.2481
580 0.2503
581 0.2528
582 0.2542
583 0.257
584 0.2575
585 0.2559
586 0.2515
587 0.2513
588 0.255
589 0.2455
590 0.2353
591 0.2468
592 0.2529
593 0.2537
594 0.2536
595 0.2547
596 0.2538
597 0.2558
598 0.2558
599 0.2537
600 0.2545
601 0.2532
602 0.2505
603 0.2518
604 0.2567
605 0.2579
606 0.2567
607 0.256
608 0.2553
609 0.2531
610 0.252
611 0.2524
612 0.253
613 0.2521
614 0.2492
615 0.2493
616 0.2476
617 0.2432
618 0.2473
619 0.2512
620 0.253
621 0.2556
622 0.2541
623 0.2528
624 0.2516
625 0.2496
626 0.2489
627 0.2541
628 0.2575
629 0.2579
630 0.2552
631 0.2542
632 0.2508
633 0.2542
634 0.253
635 0.2541
636 0.2543
637 0.2539
638 0.2576
639 0.2577
640 0.2528
641 0.2511
642 0.2503
643 0.2532
644 0.2526
645 0.2532
646 0.2512
647 0.2518
648 0.2538
649 0.2533
650 0.246
651 0.255
652 0.2565
653 0.253
654 0.2512
655 0.2475
656 0.2314
657 0.2128
658 0.2357
659 0.2473
660 0.2484
661 0.2507
662 0.2524
663 0.2517
664 0.2489
665 0.2498
666 0.2506
667 0.2494
668 0.249
669 0.2508
670 0.2503
671 0.2496
672 0.2486
673 0.248
674 0.2477
675 0.2475
676 0.2472
677 0.247
678 0.2469
679 0.2467
680 0.2466
681 0.2465
682 0.2464
683 0.2464
684 0.2464
685 0.2464
686 0.2465
687 0.2465
688 0.2466
689 0.2472
690 0.2487
691 0.2492
692 0.2481
693 0.2474
694 0.248
695 0.2467
696 0.2467
697 0.2476
698 0.2444
699 0.2475
700 0.2483
701 0.2451
702 0.2436
703 0.2448
704 0.2461
705 0.2488
706 0.2474
707 0.2445
708 0.2449
709 0.2429
710 0.2414
711 0.2425
712 0.2393
713 0.2385
714 0.2392
715 0.2388
716 0.2381
717 0.2393
718 0.2391
719 0.2361
720 0.2364
721 0.237
722 0.2372
723 0.237
724 0.2382
725 0.2377
726 0.2358
727 0.2366
728 0.2363
729 0.232
730 0.2312
731 0.2356
732 0.2351
733 0.2351
734 0.2353
735 0.2355
736 0.2331
737 0.2325
738 0.2324
739 0.2272
740 0.2277
741 0.2266
742 0.225
743 0.2285
744 0.232
745 0.2297
746 0.2323
747 0.2315
748 0.2325
749 0.2312
750 0.2287
