# Top-of-atmosphere (TOA) lunar irradiance from Miller and Turner (2009) by 10 nm increments
# First column wavelength (nm), second column TOA irradiance# Phase angle = 128
# Units = mW/m^2-micrometer

300 0.1649
310 0.1643
320 0.2491
330 0.405
340 0.3647
350 0.3367
360 0.4445
370 0.5359
380 0.4672
390 0.5523
400 0.796
410 0.8312
420 0.8651
430 0.7637
440 0.9322
450 1.109
460 1.14
470 1.151
480 1.23
490 1.198
500 1.186
510 1.201
520 1.149
530 1.231
540 1.221
550 1.279
560 1.214
570 1.259
580 1.284
590 1.206
600 1.303
610 1.288
620 1.292
630 1.301
640 1.288
650 1.252
660 1.262
670 1.271
680 1.25
690 1.259
700 1.256
710 1.219
720 1.193
730 1.165
740 1.146
750 1.15
